Cavendish Experiment - Version 1.0
(c) Seth Price, 2017
4/4/2018	1:54:17 PM

Time (s)	Voltage (V)

0.000000	-2.357900
0.250000	-2.350423
0.500000	-2.343252
0.750000	-2.335012
1.000000	-2.327993
1.250000	-2.315633
1.500000	-2.312123
1.750000	-2.298848
2.000000	-2.293050
2.250000	-2.281300
2.500000	-2.274739
2.750000	-2.262379
3.000000	-2.253681
3.250000	-2.245441
3.500000	-2.233387
3.750000	-2.225452
4.000000	-2.212940
4.250000	-2.206073
4.500000	-2.190204
4.750000	-2.184253
5.000000	-2.169451
5.250000	-2.160601
5.500000	-2.147173
5.750000	-2.137560
6.000000	-2.124895
6.250000	-2.111772
6.500000	-2.103075
6.750000	-2.086900
7.000000	-2.077897
7.250000	-2.062028
7.500000	-2.053941
7.750000	-2.035630
8.000000	-2.027085
8.250000	-2.011521
8.500000	-1.998856
8.750000	-1.985275
9.000000	-1.971237
9.250000	-1.958724
9.500000	-1.941176
9.750000	-1.931411
10.000000	-1.912642
10.250000	-1.902113
10.500000	-1.883345
10.750000	-1.872206
11.000000	-1.853284
11.250000	-1.840314
11.500000	-1.825055
11.750000	-1.808270
12.000000	-1.794232
12.250000	-1.775921
12.500000	-1.763409
12.750000	-1.742351
13.000000	-1.731212
13.250000	-1.710002
13.500000	-1.697185
13.750000	-1.677195
14.000000	-1.662852
14.250000	-1.644083
14.500000	-1.626230
14.750000	-1.611124
15.000000	-1.590372
15.250000	-1.576028
15.500000	-1.554208
15.750000	-1.540475
16.000000	-1.516976
16.250000	-1.502937
16.500000	-1.480964
16.750000	-1.463874
17.000000	-1.444038
17.250000	-1.425269
17.500000	-1.407111
17.750000	-1.385138
18.000000	-1.369573
18.250000	-1.345617
18.500000	-1.330205
18.750000	-1.305333
19.000000	-1.289464
19.250000	-1.265049
19.500000	-1.247654
19.750000	-1.225528
20.000000	-1.204471
20.250000	-1.185245
20.500000	-1.162356
20.750000	-1.144656
21.000000	-1.118715
21.250000	-1.102846
21.500000	-1.075990
21.750000	-1.058900
22.000000	-1.032959
22.250000	-1.014496
22.500000	-0.990082
22.750000	-0.968719
23.000000	-0.947356
23.250000	-0.922484
23.500000	-0.903105
23.750000	-0.876097
24.000000	-0.858244
24.250000	-0.830014
24.500000	-0.812009
24.750000	-0.784390
25.000000	-0.764706
25.250000	-0.738918
25.500000	-0.716487
25.750000	-0.693141
26.000000	-0.667659
26.250000	-0.647059
26.500000	-0.618524
26.750000	-0.599908
27.000000	-0.570306
27.250000	-0.551690
27.500000	-0.522545
27.750000	-0.501945
28.000000	-0.474784
28.250000	-0.451438
28.500000	-0.427024
28.750000	-0.400778
29.000000	-0.379568
29.250000	-0.350271
29.500000	-0.330739
29.750000	-0.300221
30.000000	-0.280385
30.250000	-0.250172
30.500000	-0.229725
30.750000	-0.201343
31.000000	-0.177996
31.250000	-0.152667
31.500000	-0.125658
31.750000	-0.103532
32.000000	-0.073930
32.250000	-0.053178
32.500000	-0.021744
32.750000	-0.002365
33.000000	0.029221
33.250000	0.050126
33.500000	0.079881
33.750000	0.103685
34.000000	0.129931
34.250000	0.157092
34.500000	0.180285
34.750000	0.209888
35.000000	0.230640
35.250000	0.262226
35.500000	0.282216
35.750000	0.313497
36.000000	0.334554
36.250000	0.364004
36.500000	0.387198
36.750000	0.414359
37.000000	0.440757
37.250000	0.464408
37.500000	0.494011
37.750000	0.515373
38.000000	0.546807
38.250000	0.566796
38.500000	0.598383
38.750000	0.618982
39.000000	0.649042
39.250000	0.671931
39.500000	0.699245
39.750000	0.724880
40.000000	0.748684
40.250000	0.777523
40.500000	0.798733
40.750000	0.829404
41.000000	0.849241
41.250000	0.880522
41.500000	0.900664
41.750000	0.930419
42.000000	0.952544
42.250000	0.979706
42.500000	1.004578
42.750000	1.028077
43.000000	1.056306
43.250000	1.076600
43.500000	1.106661
43.750000	1.125429
44.000000	1.156405
44.250000	1.175326
44.500000	1.204471
44.750000	1.225528
45.000000	1.251926
45.250000	1.275730
45.500000	1.298924
45.750000	1.325475
46.000000	1.345617
46.250000	1.374762
46.500000	1.393225
46.750000	1.422980
47.000000	1.441138
47.250000	1.469368
47.500000	1.488747
47.750000	1.514839
48.000000	1.537423
48.250000	1.559701
48.500000	1.584726
48.750000	1.604410
49.000000	1.632029
49.250000	1.648814
49.500000	1.676890
49.750000	1.693828
50.000000	1.720989
50.250000	1.738994
50.500000	1.764172
50.750000	1.784619
51.000000	1.805982
51.250000	1.829786
51.500000	1.847791
51.750000	1.873274
52.000000	1.889296
52.250000	1.916762
52.500000	1.931716
52.750000	1.957809
53.000000	1.973831
53.250000	1.997635
53.500000	2.016556
53.750000	2.037003
54.000000	2.058671
54.250000	2.075303
54.500000	2.099260
54.750000	2.113909
55.000000	2.138933
55.250000	2.151751
55.500000	2.176928
55.750000	2.190814
56.000000	2.213398
56.250000	2.230030
56.500000	2.248646
56.750000	2.267720
57.000000	2.283436
57.250000	2.305562
57.500000	2.317616
57.750000	2.341421
58.000000	2.352560
58.250000	2.375448
58.500000	2.386893
58.750000	2.408408
59.000000	2.422293
59.250000	2.439384
59.500000	2.456779
59.750000	2.470817
60.000000	2.490806
60.250000	2.501488
60.500000	2.523003
60.750000	2.532158
61.000000	2.553368
61.250000	2.562829
61.500000	2.581903
61.750000	2.593652
62.000000	2.609522
62.250000	2.624323
62.500000	2.636225
62.750000	2.653468
63.000000	2.662470
63.250000	2.681239
63.500000	2.688258
63.750000	2.707637
64.000000	2.714504
64.250000	2.731594
64.500000	2.741207
64.750000	2.755093
65.000000	2.766690
65.250000	2.777524
65.500000	2.792172
65.750000	2.798886
66.000000	2.815671
66.250000	2.821164
66.500000	2.837797
66.750000	2.842680
67.000000	2.857939
67.250000	2.864958
67.500000	2.876249
67.750000	2.885710
68.000000	2.893797
68.250000	2.906004
68.500000	2.911192
68.750000	2.925536
69.000000	2.927977
69.250000	2.942626
69.500000	2.945220
69.750000	2.958190
70.000000	2.962463
70.250000	2.972991
70.500000	2.979553
70.750000	2.984894
71.000000	2.994659
71.250000	2.997559
71.500000	3.009308
71.750000	3.009766
72.000000	3.021973
72.250000	3.022125
72.500000	3.032502
72.750000	3.034791
73.000000	3.042115
73.250000	3.045930
73.500000	3.050355
73.750000	3.058137
74.000000	3.058290
74.250000	3.067903
74.500000	3.066377
74.750000	3.075990
75.000000	3.073396
75.250000	3.082093
75.500000	3.081025
75.750000	3.085908
76.000000	3.087434
76.250000	3.089723
76.500000	3.093843
76.750000	3.092317
77.000000	3.098726
77.250000	3.094911
77.500000	3.102083
77.750000	3.097505
78.000000	3.103609
78.250000	3.100099
78.500000	3.104067
78.750000	3.102236
79.000000	3.102083
79.250000	3.103609
79.500000	3.100404
79.750000	3.103456
80.000000	3.097353
80.250000	3.102236
80.500000	3.094759
80.750000	3.099031
81.000000	3.092775
81.250000	3.094606
81.500000	3.089876
81.750000	3.088045
82.000000	3.086671
82.250000	3.081178
82.500000	3.082399
82.750000	3.074617
83.000000	3.076448
83.250000	3.066834
83.500000	3.068971
83.750000	3.059510
84.000000	3.058900
84.250000	3.052338
84.500000	3.048371
84.750000	3.043946
85.000000	3.036622
85.250000	3.035096
85.500000	3.024872
85.750000	3.024720
86.000000	3.012818
86.250000	3.012207
86.500000	3.000153
86.750000	2.998627
87.000000	2.988861
87.250000	2.983215
87.500000	2.976348
87.750000	2.967193
88.000000	2.962463
88.250000	2.950561
88.500000	2.947662
88.750000	2.933318
89.000000	2.930572
89.250000	2.916838
89.500000	2.912108
89.750000	2.899901
90.000000	2.892729
90.250000	2.882658
90.500000	2.871824
90.750000	2.864805
91.000000	2.850919
91.250000	2.845426
91.500000	2.829404
91.750000	2.824674
92.000000	2.808194
92.250000	2.801938
92.500000	2.786831
92.750000	2.778286
93.000000	2.765164
93.250000	2.752651
93.500000	2.743038
93.750000	2.727474
94.000000	2.719997
94.250000	2.702449
94.500000	2.695125
94.750000	2.676966
95.000000	2.669184
95.250000	2.651942
95.500000	2.640955
95.750000	2.626154
96.000000	2.612116
96.250000	2.599908
96.500000	2.582513
96.750000	2.572900
97.000000	2.552911
97.250000	2.543755
97.500000	2.523613
97.750000	2.513390
98.000000	2.494011
98.250000	2.482261
98.500000	2.465324
98.750000	2.449607
99.000000	2.435416
99.250000	2.417105
99.500000	2.405203
99.750000	2.384146
100.000000	2.373007
100.250000	2.351034
100.500000	2.338979
100.750000	2.318074
101.000000	2.304036
101.250000	2.284962
101.500000	2.268482
101.750000	2.252003
102.000000	2.232013
102.250000	2.217823
102.500000	2.195239
102.750000	2.182574
103.000000	2.159228
103.250000	2.145647
103.500000	2.122911
103.750000	2.107652
104.000000	2.087053
104.250000	2.069200
104.500000	2.050431
104.750000	2.029526
105.000000	2.013657
105.250000	1.989700
105.500000	1.975204
105.750000	1.950790
106.000000	1.935836
106.250000	1.912032
106.500000	1.895857
106.750000	1.873274
107.000000	1.854353
107.250000	1.834363
107.500000	1.812238
107.750000	1.794842
108.000000	1.770123
108.250000	1.754711
108.500000	1.728618
108.750000	1.712749
109.000000	1.687572
109.250000	1.670024
109.500000	1.646067
109.750000	1.626688
110.000000	1.605173
110.250000	1.582437
110.500000	1.563516
110.750000	1.538338
111.000000	1.521401
111.250000	1.494697
111.500000	1.478370
111.750000	1.451667
112.000000	1.433509
112.250000	1.408637
112.500000	1.388190
112.750000	1.365759
113.000000	1.342412
113.250000	1.322728
113.500000	1.296788
113.750000	1.278782
114.000000	1.251316
114.250000	1.233616
114.500000	1.205997
114.750000	1.187381
115.000000	1.162051
115.250000	1.140841
115.500000	1.117647
115.750000	1.094301
116.000000	1.073396
116.250000	1.047150
116.500000	1.028534
116.750000	1.000305
117.000000	0.981689
117.250000	0.954223
117.500000	0.935454
117.750000	0.909361
118.000000	0.888304
118.250000	0.864500
118.500000	0.840696
118.750000	0.819486
119.000000	0.793393
119.250000	0.774319
119.500000	0.746700
119.750000	0.727932
120.000000	0.700160
120.250000	0.681239
120.500000	0.654688
120.750000	0.634089
121.000000	0.609979
121.250000	0.586480
121.500000	0.564965
121.750000	0.539330
122.000000	0.519341
122.250000	0.492180
122.500000	0.473716
122.750000	0.446250
123.000000	0.427176
123.250000	0.400626
123.500000	0.380026
123.750000	0.355764
124.000000	0.332723
124.250000	0.311055
124.500000	0.286183
124.750000	0.266041
125.000000	0.239490
125.250000	0.220722
125.500000	0.193561
125.750000	0.174334
126.000000	0.148699
126.250000	0.128862
126.500000	0.105211
126.750000	0.082780
127.000000	0.061112
127.250000	0.036851
127.500000	0.016861
127.750000	-0.008621
128.000000	-0.027237
128.250000	-0.053330
128.500000	-0.071641
128.750000	-0.096513
129.000000	-0.116045
129.250000	-0.139849
129.500000	-0.160754
129.750000	-0.182422
130.000000	-0.205310
130.250000	-0.224384
130.500000	-0.248493
130.750000	-0.266804
131.000000	-0.291371
131.250000	-0.309071
131.500000	-0.333333
131.750000	-0.351797
132.000000	-0.374380
132.250000	-0.394217
132.500000	-0.414969
132.750000	-0.436790
133.000000	-0.455558
133.250000	-0.479057
133.500000	-0.496147
133.750000	-0.519951
134.000000	-0.536278
134.250000	-0.559472
134.500000	-0.577020
134.750000	-0.598535
135.000000	-0.617304
135.250000	-0.637140
135.500000	-0.656825
135.750000	-0.674678
136.000000	-0.696040
136.250000	-0.712367
136.500000	-0.734493
136.750000	-0.750057
137.000000	-0.771878
137.250000	-0.788205
137.500000	-0.808499
137.750000	-0.825589
138.000000	-0.844053
138.250000	-0.862974
138.500000	-0.879606
138.750000	-0.900206
139.000000	-0.915160
139.250000	-0.935302
139.500000	-0.949645
139.750000	-0.969787
140.000000	-0.984894
140.250000	-1.003357
140.500000	-1.019226
140.750000	-1.036622
141.000000	-1.053407
141.250000	-1.068666
141.500000	-1.086824
141.750000	-1.100710
142.000000	-1.119478
142.250000	-1.132753
142.500000	-1.151369
142.750000	-1.164950
143.000000	-1.181888
143.250000	-1.196078
143.500000	-1.211948
143.750000	-1.227512
144.000000	-1.241245
144.250000	-1.258335
144.500000	-1.270237
144.750000	-1.287785
145.000000	-1.299077
145.250000	-1.315862
145.500000	-1.327916
145.750000	-1.343175
146.000000	-1.355840
146.250000	-1.369879
146.500000	-1.383917
146.750000	-1.396124
147.000000	-1.411078
147.250000	-1.422217
147.500000	-1.437018
147.750000	-1.447394
148.000000	-1.462196
148.250000	-1.472419
148.500000	-1.486610
148.750000	-1.497749
149.000000	-1.509804
149.250000	-1.521248
149.500000	-1.532235
149.750000	-1.544900
150.000000	-1.554208
150.250000	-1.567636
150.500000	-1.576486
150.750000	-1.589456
151.000000	-1.598001
151.250000	-1.610208
151.500000	-1.619211
151.750000	-1.629892
152.000000	-1.639811
152.250000	-1.649729
152.500000	-1.660411
152.750000	-1.668498
153.000000	-1.679942
153.250000	-1.686961
153.500000	-1.697795
153.750000	-1.705272
154.000000	-1.715496
154.250000	-1.722515
154.500000	-1.732280
154.750000	-1.740215
155.000000	-1.747845
155.250000	-1.757000
155.500000	-1.763714
155.750000	-1.773327
156.000000	-1.778973
156.250000	-1.788586
156.500000	-1.793774
156.750000	-1.802625
157.000000	-1.807965
157.250000	-1.815900
157.500000	-1.821851
157.750000	-1.828260
158.000000	-1.835584
158.250000	-1.840162
158.500000	-1.847791
158.750000	-1.851759
159.000000	-1.859083
159.250000	-1.862440
159.500000	-1.869459
159.750000	-1.873426
160.000000	-1.879072
160.250000	-1.883497
160.500000	-1.888685
160.750000	-1.893721
161.000000	-1.897078
161.250000	-1.903182
161.500000	-1.905165
161.750000	-1.911421
162.000000	-1.913405
162.250000	-1.918593
162.500000	-1.920272
162.750000	-1.924697
163.000000	-1.927138
163.250000	-1.930037
163.500000	-1.933852
163.750000	-1.935531
164.000000	-1.939193
164.250000	-1.939956
164.500000	-1.943923
164.750000	-1.944228
165.000000	-1.947585
165.250000	-1.948196
165.500000	-1.950485
165.750000	-1.951095
166.000000	-1.952926
166.250000	-1.954452
166.500000	-1.954299
166.750000	-1.956893
167.000000	-1.956283
167.250000	-1.957961
167.500000	-1.956283
167.750000	-1.958419
168.000000	-1.957199
168.250000	-1.957809
168.500000	-1.956893
168.750000	-1.956435
169.000000	-1.956283
169.250000	-1.954604
169.500000	-1.955673
169.750000	-1.952468
170.000000	-1.953231
170.250000	-1.950332
170.500000	-1.950790
170.750000	-1.947433
171.000000	-1.946975
171.250000	-1.944533
171.500000	-1.942092
171.750000	-1.940566
172.000000	-1.937819
172.250000	-1.935836
172.500000	-1.931411
172.750000	-1.930953
173.000000	-1.925612
173.250000	-1.924086
173.500000	-1.919204
173.750000	-1.917372
174.000000	-1.912337
174.250000	-1.909438
174.500000	-1.905928
174.750000	-1.900740
175.000000	-1.898146
175.250000	-1.892348
175.500000	-1.889296
175.750000	-1.882734
176.000000	-1.879835
176.250000	-1.872816
176.500000	-1.869154
176.750000	-1.863203
177.000000	-1.858167
177.250000	-1.852216
177.500000	-1.845655
177.750000	-1.841230
178.000000	-1.833753
178.250000	-1.829328
178.500000	-1.821698
178.750000	-1.816815
179.000000	-1.808576
179.250000	-1.802930
179.500000	-1.794995
179.750000	-1.788128
180.000000	-1.780957
180.250000	-1.773632
180.500000	-1.766766
180.750000	-1.757916
181.000000	-1.752270
181.250000	-1.742351
181.500000	-1.736095
181.750000	-1.726482
182.000000	-1.719158
182.250000	-1.709697
182.500000	-1.701762
182.750000	-1.692454
183.000000	-1.683299
183.250000	-1.675059
183.500000	-1.664530
183.750000	-1.656748
184.000000	-1.645457
184.250000	-1.637827
184.500000	-1.626230
184.750000	-1.617838
185.000000	-1.606394
185.250000	-1.596780
185.500000	-1.586252
185.750000	-1.575723
186.000000	-1.565957
186.250000	-1.553445
186.500000	-1.544442
186.750000	-1.531929
187.000000	-1.522011
187.250000	-1.508736
187.500000	-1.498970
187.750000	-1.486000
188.000000	-1.475166
188.250000	-1.462806
188.500000	-1.450752
188.750000	-1.439460
189.000000	-1.425879
189.250000	-1.415198
189.500000	-1.401007
189.750000	-1.390326
190.000000	-1.375525
190.250000	-1.364538
190.500000	-1.349889
190.750000	-1.337987
191.000000	-1.323796
191.250000	-1.310216
191.500000	-1.297246
191.750000	-1.282444
192.000000	-1.269627
192.250000	-1.253757
192.500000	-1.241703
192.750000	-1.225986
193.000000	-1.213321
193.250000	-1.197147
193.500000	-1.183566
193.750000	-1.168307
194.000000	-1.153353
194.250000	-1.139010
194.500000	-1.122988
194.750000	-1.109560
195.000000	-1.092317
195.250000	-1.079042
195.500000	-1.060731
195.750000	-1.047303
196.000000	-1.029755
196.250000	-1.014801
196.500000	-0.997711
196.750000	-0.981842
197.000000	-0.965972
197.250000	-0.948577
197.500000	-0.933623
197.750000	-0.915465
198.000000	-0.900511
198.250000	-0.882200
198.500000	-0.866789
198.750000	-0.848173
199.000000	-0.832761
199.250000	-0.814908
199.500000	-0.797971
199.750000	-0.780880
200.000000	-0.762570
200.250000	-0.746242
200.500000	-0.727016
200.750000	-0.711147
201.000000	-0.691310
201.250000	-0.675441
201.500000	-0.655909
201.750000	-0.639124
202.000000	-0.619745
202.250000	-0.602045
202.500000	-0.583886
202.750000	-0.564813
203.000000	-0.547112
203.250000	-0.527276
203.500000	-0.510185
203.750000	-0.489586
204.000000	-0.472496
204.250000	-0.452201
204.500000	-0.434653
204.750000	-0.414206
205.000000	-0.395743
205.250000	-0.376669
205.500000	-0.356832
205.750000	-0.338674
206.000000	-0.317769
206.250000	-0.300221
206.500000	-0.278859
206.750000	-0.261311
207.000000	-0.240101
207.250000	-0.221790
207.500000	-0.200732
207.750000	-0.182116
208.000000	-0.161669
208.250000	-0.141833
208.500000	-0.122606
208.750000	-0.101549
209.000000	-0.083238
209.250000	-0.061875
209.500000	-0.043717
209.750000	-0.021744
210.000000	-0.003586
210.250000	0.018082
210.500000	0.037156
210.750000	0.057755
211.000000	0.077897
211.250000	0.097276
211.500000	0.118791
211.750000	0.136950
212.000000	0.159075
212.250000	0.177539
212.500000	0.200122
212.750000	0.218891
213.000000	0.241169
213.250000	0.259632
213.500000	0.280385
213.750000	0.300374
214.000000	0.320363
214.250000	0.341573
214.500000	0.360342
214.750000	0.382773
215.000000	0.401236
215.250000	0.423819
215.500000	0.441825
215.750000	0.464408
216.000000	0.483024
216.250000	0.503777
216.500000	0.524071
216.750000	0.544518
217.000000	0.565270
217.250000	0.584039
217.500000	0.606012
217.750000	0.624323
218.000000	0.646906
218.250000	0.665064
218.500000	0.686885
218.750000	0.705501
219.000000	0.726406
219.250000	0.745785
219.500000	0.765469
219.750000	0.786068
220.000000	0.804379
220.250000	0.825895
220.500000	0.843900
220.750000	0.865721
221.000000	0.883268
221.250000	0.904631
221.500000	0.922637
221.750000	0.943084
222.000000	0.961700
222.250000	0.981384
222.500000	1.001373
222.750000	1.019379
223.000000	1.040284
223.250000	1.057526
223.500000	1.078584
223.750000	1.095521
224.000000	1.116579
224.250000	1.133364
224.500000	1.153353
224.750000	1.171664
225.000000	1.190280
225.250000	1.209201
225.500000	1.226749
225.750000	1.246281
226.000000	1.263218
226.250000	1.283360
226.500000	1.299382
226.750000	1.319219
227.000000	1.335546
227.250000	1.354772
227.500000	1.371710
227.750000	1.389715
228.000000	1.407416
228.250000	1.424048
228.500000	1.442969
228.750000	1.458381
229.000000	1.478065
229.250000	1.492866
229.500000	1.511940
229.750000	1.526894
230.000000	1.544900
230.250000	1.560616
230.500000	1.577707
230.750000	1.594491
231.000000	1.609598
231.250000	1.627298
231.500000	1.641794
231.750000	1.659953
232.000000	1.673533
232.250000	1.691234
232.500000	1.705119
232.750000	1.721904
233.000000	1.736248
233.250000	1.751354
233.500000	1.767071
233.750000	1.781109
234.000000	1.797436
234.250000	1.810407
234.500000	1.827192
234.750000	1.839399
235.000000	1.856184
235.250000	1.868544
235.500000	1.884565
235.750000	1.897231
236.000000	1.911727
236.250000	1.925307
236.500000	1.938430
236.750000	1.952926
237.000000	1.964370
237.250000	1.979324
237.500000	1.990463
237.750000	2.005722
238.000000	2.015793
238.250000	2.030442
238.500000	2.041276
238.750000	2.054551
239.000000	2.066453
239.250000	2.078355
239.500000	2.090562
239.750000	2.100938
240.000000	2.113909
240.250000	2.123674
240.500000	2.137102
240.750000	2.145800
241.000000	2.158617
241.250000	2.167773
241.500000	2.179980
241.750000	2.189136
242.000000	2.199970
242.250000	2.210346
242.500000	2.219806
242.750000	2.230488
243.000000	2.238422
243.250000	2.249561
243.500000	2.256733
243.750000	2.268330
244.000000	2.275197
244.250000	2.285878
244.500000	2.293507
244.750000	2.302510
245.000000	2.310445
245.250000	2.318074
245.500000	2.327382
245.750000	2.333333
246.000000	2.342794
246.250000	2.347982
246.500000	2.357900
246.750000	2.362631
247.000000	2.372396
247.250000	2.375753
247.500000	2.384451
247.750000	2.389334
248.000000	2.395743
248.250000	2.402457
248.500000	2.406577
248.750000	2.415274
249.000000	2.417411
249.250000	2.427024
249.500000	2.427787
249.750000	2.436179
250.000000	2.438010
250.250000	2.445335
250.500000	2.448539
250.750000	2.453727
251.000000	2.459220
251.250000	2.461051
251.500000	2.468681
251.750000	2.467918
252.000000	2.476616
252.250000	2.473106
252.500000	2.481193
252.750000	2.479667
253.000000	2.485771
253.250000	2.486076
253.500000	2.489280
253.750000	2.492790
254.000000	2.492180
254.250000	2.498283
254.500000	2.494926
254.750000	2.502556
255.000000	2.498283
255.250000	2.505608
255.500000	2.501183
255.750000	2.506981
256.000000	2.504997
256.250000	2.505913
256.500000	2.507744
256.750000	2.505302
257.000000	2.509575
257.250000	2.504234
257.500000	2.510033
257.750000	2.503014
258.000000	2.508812
258.250000	2.502403
258.500000	2.507133
258.750000	2.505302
259.000000	2.504082
259.250000	2.504539
259.500000	2.499809
259.750000	2.501488
260.000000	2.495537
260.250000	2.497826
260.500000	2.490501
260.750000	2.492332
261.000000	2.486381
261.250000	2.485466
261.500000	2.480888
261.750000	2.478294
262.000000	2.475700
262.250000	2.469444
262.500000	2.469596
262.750000	2.461204
263.000000	2.461357
263.250000	2.453269
263.500000	2.452659
263.750000	2.444571
264.000000	2.442435
264.250000	2.437095
264.500000	2.431144
264.750000	2.427329
265.000000	2.419852
265.250000	2.417563
265.500000	2.407492
265.750000	2.406271
266.000000	2.396506
266.250000	2.393759
266.500000	2.384146
266.750000	2.380484
267.000000	2.371939
267.250000	2.365530
267.500000	2.360037
267.750000	2.350729
268.000000	2.346151
268.250000	2.335012
268.500000	2.331502
268.750000	2.319295
269.000000	2.315785
269.250000	2.304341
269.500000	2.298085
269.750000	2.288167
270.000000	2.280232
270.250000	2.271992
270.500000	2.261616
270.750000	2.254902
271.000000	2.242390
271.250000	2.236591
271.500000	2.223621
271.750000	2.217823
272.000000	2.204395
272.250000	2.197681
272.500000	2.185779
272.750000	2.176623
273.000000	2.165942
273.250000	2.154955
273.500000	2.146258
273.750000	2.132067
274.000000	2.125353
274.250000	2.110704
274.500000	2.103380
274.750000	2.088121
275.000000	2.080491
275.250000	2.065843
275.500000	2.056230
275.750000	2.044175
276.000000	2.031357
276.250000	2.020828
276.500000	2.006332
276.750000	1.997482
277.000000	1.981308
277.250000	1.973068
277.500000	1.956130
277.750000	1.946822
278.000000	1.930953
278.250000	1.919814
278.500000	1.905623
278.750000	1.892042
279.000000	1.880293
279.250000	1.864576
279.500000	1.854200
279.750000	1.836500
280.000000	1.826581
280.250000	1.808270
280.500000	1.797894
280.750000	1.780804
281.000000	1.768597
281.250000	1.752880
281.500000	1.738537
281.750000	1.725109
282.000000	1.707561
282.250000	1.695964
282.500000	1.677501
282.750000	1.665751
283.000000	1.647440
283.250000	1.635691
283.500000	1.617380
283.750000	1.604257
284.000000	1.587930
284.250000	1.572061
284.500000	1.557412
284.750000	1.539712
285.000000	1.526589
285.250000	1.507057
285.500000	1.495155
285.750000	1.475319
286.000000	1.462501
286.250000	1.443275
286.500000	1.429389
286.750000	1.411383
287.000000	1.395056
287.250000	1.379492
287.500000	1.361486
287.750000	1.346990
288.000000	1.327153
288.250000	1.314183
288.500000	1.293126
288.750000	1.279240
289.000000	1.259251
289.250000	1.244602
289.500000	1.225528
289.750000	1.209201
290.000000	1.192264
290.250000	1.173800
290.500000	1.158541
290.750000	1.138705
291.000000	1.124361
291.250000	1.103609
291.500000	1.089265
291.750000	1.068513
292.000000	1.053559
292.250000	1.034485
292.500000	1.017700
292.750000	0.999847
293.000000	0.981079
293.250000	0.965209
293.500000	0.944762
293.750000	0.929961
294.000000	0.908598
294.250000	0.894102
294.500000	0.872740
294.750000	0.857633
295.000000	0.837797
295.250000	0.820554
295.500000	0.802396
295.750000	0.783475
296.000000	0.766842
296.250000	0.746090
296.500000	0.731289
296.750000	0.709468
297.000000	0.694514
297.250000	0.673304
297.500000	0.658503
297.750000	0.637903
298.000000	0.620966
298.250000	0.602045
298.500000	0.583276
298.750000	0.566644
299.000000	0.546197
299.250000	0.531395
299.500000	0.509270
299.750000	0.495079
300.000000	0.472953
300.250000	0.458152
300.500000	0.437400
300.750000	0.421530
301.000000	0.401999
301.250000	0.383688
301.500000	0.366598
301.750000	0.346456
302.000000	0.331502
302.250000	0.309682
302.500000	0.295338
302.750000	0.273518
303.000000	0.259174
303.250000	0.237964
303.500000	0.222705
303.750000	0.203326
304.000000	0.185779
304.250000	0.168231
304.500000	0.149310
304.750000	0.134051
305.000000	0.113603
305.250000	0.099718
305.500000	0.078050
305.750000	0.064469
306.000000	0.043412
306.250000	0.028611
306.500000	0.009842
306.750000	-0.006790
307.000000	-0.023880
307.250000	-0.042496
307.500000	-0.057450
307.750000	-0.077592
308.000000	-0.091173
308.250000	-0.112078
308.500000	-0.125048
308.750000	-0.145495
309.000000	-0.159533
309.250000	-0.178607
309.500000	-0.194171
309.750000	-0.210803
310.000000	-0.228504
310.250000	-0.242847
310.500000	-0.261921
310.750000	-0.274891
311.000000	-0.294728
311.250000	-0.307393
311.500000	-0.326467
311.750000	-0.339590
312.000000	-0.357748
312.250000	-0.372702
312.500000	-0.389029
312.750000	-0.405661
313.000000	-0.419852
313.250000	-0.438010
313.500000	-0.450065
313.750000	-0.469139
314.000000	-0.480430
314.250000	-0.498894
314.500000	-0.510796
314.750000	-0.528496
315.000000	-0.541924
315.250000	-0.557641
315.500000	-0.572595
315.750000	-0.586633
316.000000	-0.602960
316.250000	-0.614404
316.500000	-0.631952
316.750000	-0.642634
317.000000	-0.660182
317.250000	-0.670558
317.500000	-0.687343
317.750000	-0.699092
318.000000	-0.714046
318.250000	-0.727626
318.500000	-0.740139
318.750000	-0.755703
319.000000	-0.766690
319.250000	-0.782712
319.500000	-0.792172
319.750000	-0.808652
320.000000	-0.818265
320.250000	-0.834287
320.500000	-0.844816
320.750000	-0.858854
321.000000	-0.870451
321.250000	-0.882506
321.500000	-0.896544
321.750000	-0.906310
322.000000	-0.921263
322.250000	-0.929656
322.500000	-0.945068
322.750000	-0.953460
323.000000	-0.968109
323.250000	-0.977111
323.500000	-0.989929
323.750000	-1.000153
324.000000	-1.011444
324.250000	-1.023651
324.500000	-1.032807
324.750000	-1.046235
325.000000	-1.053864
325.250000	-1.067292
325.500000	-1.074464
325.750000	-1.088045
326.000000	-1.095064
326.250000	-1.107729
326.500000	-1.116274
326.750000	-1.126040
327.000000	-1.135958
327.250000	-1.144350
327.500000	-1.155795
327.750000	-1.162203
328.000000	-1.175174
328.250000	-1.180514
328.500000	-1.192569
328.750000	-1.198215
329.000000	-1.208896
329.250000	-1.215610
329.500000	-1.225071
329.750000	-1.233310
330.000000	-1.240635
330.250000	-1.250553
330.500000	-1.256199
330.750000	-1.266575
331.000000	-1.271153
331.250000	-1.281682
331.500000	-1.286107
331.750000	-1.295567
332.000000	-1.301518
332.250000	-1.309453
332.500000	-1.316319
332.750000	-1.321965
333.000000	-1.330053
333.250000	-1.334325
333.500000	-1.343175
333.750000	-1.346990
334.000000	-1.355840
334.250000	-1.358892
334.500000	-1.367437
334.750000	-1.371710
335.000000	-1.377508
335.250000	-1.382696
335.500000	-1.387732
335.750000	-1.393835
336.000000	-1.397040
336.250000	-1.404517
336.500000	-1.406500
336.750000	-1.414130
337.000000	-1.416266
337.250000	-1.422827
337.500000	-1.425269
337.750000	-1.430762
338.000000	-1.434119
338.250000	-1.437171
338.500000	-1.442512
338.750000	-1.444038
339.000000	-1.450294
339.250000	-1.451209
339.500000	-1.457313
339.750000	-1.457771
340.000000	-1.462959
340.250000	-1.463874
340.500000	-1.468147
340.750000	-1.469825
341.000000	-1.471961
341.250000	-1.475013
341.500000	-1.475471
341.750000	-1.479896
342.000000	-1.479438
342.250000	-1.483406
342.500000	-1.482185
342.750000	-1.486763
343.000000	-1.486305
343.250000	-1.488594
343.500000	-1.488747
343.750000	-1.490272
344.000000	-1.491341
344.250000	-1.491035
344.500000	-1.493629
344.750000	-1.491798
345.000000	-1.494545
345.250000	-1.492103
345.500000	-1.494850
345.750000	-1.492561
346.000000	-1.494545
346.250000	-1.492256
346.500000	-1.492561
346.750000	-1.492103
347.000000	-1.491035
347.250000	-1.491493
347.500000	-1.488594
347.750000	-1.489662
348.000000	-1.485847
348.250000	-1.486915
348.500000	-1.482948
348.750000	-1.483711
349.000000	-1.479896
349.250000	-1.479438
349.500000	-1.477150
349.750000	-1.473945
350.000000	-1.473182
350.250000	-1.469520
350.500000	-1.469062
350.750000	-1.463874
351.000000	-1.463874
351.250000	-1.458228
351.500000	-1.457466
351.750000	-1.453193
352.000000	-1.451209
352.250000	-1.447089
352.500000	-1.443427
352.750000	-1.440681
353.000000	-1.435340
353.250000	-1.433356
353.500000	-1.426947
353.750000	-1.425574
354.000000	-1.418402
354.250000	-1.416113
354.500000	-1.410010
354.750000	-1.406043
355.000000	-1.400549
355.250000	-1.395972
355.500000	-1.391546
355.750000	-1.384833
356.000000	-1.381628
356.250000	-1.374151
356.500000	-1.370794
356.750000	-1.363012
357.000000	-1.359655
357.250000	-1.351568
357.500000	-1.347143
357.750000	-1.340124
358.000000	-1.333867
358.250000	-1.328222
358.500000	-1.320897
358.750000	-1.315862
359.000000	-1.306401
359.250000	-1.302586
359.500000	-1.292821
359.750000	-1.288396
360.000000	-1.278782
360.250000	-1.273136
360.500000	-1.265049
360.750000	-1.257725
361.000000	-1.250553
361.250000	-1.241245
361.500000	-1.235294
361.750000	-1.224918
362.000000	-1.219577
362.250000	-1.208896
362.500000	-1.203098
362.750000	-1.192721
363.000000	-1.185550
363.250000	-1.175784
363.500000	-1.167239
363.750000	-1.158389
364.000000	-1.148318
364.250000	-1.140993
364.500000	-1.129549
364.750000	-1.122835
365.000000	-1.110780
365.250000	-1.103456
365.500000	-1.091402
365.750000	-1.083314
366.000000	-1.072480
366.250000	-1.062715
366.500000	-1.053407
366.750000	-1.042573
367.000000	-1.033722
367.250000	-1.021057
367.500000	-1.012970
367.750000	-0.999237
368.000000	-0.991302
368.250000	-0.978027
368.500000	-0.969177
368.750000	-0.956970
369.000000	-0.946288
369.250000	-0.935149
369.500000	-0.923095
369.750000	-0.913024
370.000000	-0.899290
370.250000	-0.889982
370.500000	-0.875792
370.750000	-0.866636
371.000000	-0.852140
371.250000	-0.842222
371.500000	-0.828336
371.750000	-0.817502
372.000000	-0.804990
372.250000	-0.791714
372.500000	-0.780575
372.750000	-0.765927
373.000000	-0.756008
373.250000	-0.740444
373.500000	-0.730678
373.750000	-0.715419
374.000000	-0.704433
374.250000	-0.689937
374.500000	-0.677272
374.750000	-0.663996
375.000000	-0.649805
375.250000	-0.637598
375.500000	-0.622644
375.750000	-0.611505
376.000000	-0.595178
376.250000	-0.584192
376.500000	-0.567864
376.750000	-0.556420
377.000000	-0.540703
377.250000	-0.527886
377.500000	-0.513237
377.750000	-0.498589
378.000000	-0.485924
378.250000	-0.469749
378.500000	-0.457847
378.750000	-0.440757
379.000000	-0.428855
379.250000	-0.412222
379.500000	-0.399863
379.750000	-0.383383
380.000000	-0.369650
380.250000	-0.354696
380.500000	-0.339284
380.750000	-0.325704
381.000000	-0.309224
381.250000	-0.296712
381.500000	-0.279011
381.750000	-0.266346
382.000000	-0.248646
382.250000	-0.235981
382.500000	-0.219043
382.750000	-0.205005
383.000000	-0.189288
383.250000	-0.173724
383.500000	-0.159380
383.750000	-0.141985
384.000000	-0.129015
384.250000	-0.110704
384.500000	-0.097734
384.750000	-0.079576
385.000000	-0.066758
385.250000	-0.049210
385.500000	-0.035325
385.750000	-0.018692
386.000000	-0.002518
386.250000	0.012589
386.500000	0.029526
386.750000	0.043412
387.000000	0.061418
387.250000	0.074846
387.500000	0.093309
387.750000	0.107042
388.000000	0.125200
388.250000	0.139544
388.500000	0.156024
388.750000	0.171588
389.000000	0.186999
389.250000	0.204089
389.500000	0.218433
389.750000	0.236591
390.000000	0.250172
390.250000	0.268635
390.500000	0.282063
390.750000	0.300221
391.000000	0.314260
391.250000	0.331807
391.500000	0.347066
391.750000	0.362631
392.000000	0.379721
392.250000	0.393759
392.500000	0.411612
392.750000	0.425345
393.000000	0.443961
393.250000	0.457237
393.500000	0.475242
393.750000	0.489433
394.000000	0.506828
394.250000	0.522087
394.500000	0.537499
394.750000	0.554589
395.000000	0.568627
395.250000	0.586480
395.500000	0.599908
395.750000	0.618219
396.000000	0.631342
396.250000	0.648890
396.500000	0.662623
396.750000	0.679866
397.000000	0.694820
397.250000	0.710231
397.500000	0.726253
397.750000	0.740597
398.000000	0.758144
398.250000	0.771267
398.500000	0.789273
398.750000	0.802090
399.000000	0.820096
399.250000	0.833371
399.500000	0.849851
399.750000	0.864195
400.000000	0.878996
400.250000	0.894408
400.500000	0.908293
400.750000	0.925078
401.000000	0.937591
401.250000	0.955291
401.500000	0.967346
401.750000	0.984436
402.000000	0.996796
402.250000	1.013275
402.500000	1.026551
402.750000	1.041505
403.000000	1.056306
403.250000	1.069429
403.500000	1.086061
403.750000	1.097658
404.000000	1.114443
404.250000	1.125734
404.500000	1.142672
404.750000	1.154574
405.000000	1.169833
405.250000	1.182803
405.500000	1.196689
405.750000	1.210575
406.000000	1.222629
406.250000	1.238193
406.500000	1.249332
406.750000	1.265202
407.000000	1.275883
407.250000	1.291600
407.500000	1.302586
407.750000	1.317388
408.000000	1.329442
408.250000	1.341955
408.500000	1.355535
408.750000	1.366979
409.000000	1.381628
409.250000	1.392004
409.500000	1.406653
409.750000	1.415961
410.000000	1.430762
410.250000	1.440528
410.500000	1.454108
410.750000	1.465248
411.000000	1.477302
411.250000	1.489204
411.500000	1.499886
411.750000	1.513008
412.000000	1.522011
412.250000	1.536049
412.500000	1.544137
412.750000	1.558175
413.000000	1.567178
413.250000	1.579690
413.500000	1.589151
413.750000	1.600443
414.000000	1.610971
414.250000	1.620584
414.500000	1.632639
414.750000	1.640269
415.000000	1.652934
415.250000	1.660258
415.500000	1.672923
415.750000	1.679942
416.000000	1.691539
416.250000	1.699474
416.500000	1.709545
416.750000	1.719158
417.000000	1.727398
417.250000	1.738231
417.500000	1.744182
417.750000	1.755627
418.000000	1.761425
418.250000	1.773327
418.500000	1.779278
418.750000	1.789960
419.000000	1.796063
419.250000	1.805066
419.500000	1.813001
419.750000	1.820325
420.000000	1.829938
420.250000	1.835126
420.500000	1.845350
420.750000	1.849317
421.000000	1.859541
421.250000	1.863966
421.500000	1.873579
421.750000	1.878309
422.000000	1.886702
422.250000	1.892805
422.500000	1.898451
422.750000	1.906233
423.000000	1.909895
423.250000	1.918898
423.500000	1.921645
423.750000	1.930953
424.000000	1.933394
424.250000	1.941329
424.500000	1.944839
424.750000	1.951400
425.000000	1.956588
425.250000	1.960708
425.500000	1.966812
425.750000	1.969711
426.000000	1.976883
426.250000	1.977798
426.500000	1.985580
426.750000	1.986801
427.000000	1.993667
427.250000	1.995499
427.500000	2.000381
427.750000	2.003433
428.000000	2.006485
428.250000	2.011063
428.500000	2.011978
428.750000	2.017624
429.000000	2.017472
429.250000	2.023422
429.500000	2.023270
429.750000	2.028153
430.000000	2.028458
430.250000	2.032120
430.500000	2.033494
430.750000	2.035172
431.000000	2.038834
431.250000	2.038376
431.500000	2.042496
431.750000	2.041123
432.000000	2.045548
432.250000	2.043259
432.500000	2.047227
432.750000	2.045853
433.000000	2.048142
433.250000	2.048142
433.500000	2.048600
433.750000	2.049821
434.000000	2.047990
434.250000	2.050431
434.500000	2.047532
434.750000	2.050278
435.000000	2.046921
435.250000	2.049058
435.500000	2.046311
435.750000	2.047074
436.000000	2.045548
436.250000	2.044175
436.500000	2.043412
436.750000	2.040818
437.000000	2.041734
437.250000	2.037461
437.500000	2.038987
437.750000	2.033951
438.000000	2.034714
438.250000	2.029831
438.500000	2.029526
438.750000	2.025712
439.000000	2.023728
439.250000	2.021744
439.500000	2.017472
439.750000	2.016403
440.000000	2.010910
440.250000	2.010605
440.500000	2.003891
440.750000	2.003586
441.000000	1.997330
441.250000	1.996262
441.500000	1.990311
441.750000	1.986953
442.000000	1.982528
442.250000	1.977340
442.500000	1.974746
442.750000	1.967727
443.000000	1.966049
443.250000	1.958267
443.500000	1.956435
443.750000	1.948196
444.000000	1.945602
444.250000	1.938430
444.500000	1.934310
444.750000	1.928054
445.000000	1.921950
445.250000	1.917830
445.500000	1.909132
445.750000	1.905928
446.000000	1.896925
446.250000	1.893416
446.500000	1.883955
446.750000	1.880293
447.000000	1.871290
447.250000	1.866255
447.500000	1.858778
447.750000	1.851301
448.000000	1.845350
448.250000	1.836500
448.500000	1.831617
448.750000	1.821241
449.000000	1.817121
449.250000	1.806134
449.500000	1.800946
449.750000	1.790722
450.000000	1.784314
450.250000	1.775158
450.500000	1.767071
450.750000	1.759594
451.000000	1.749371
451.250000	1.743267
451.500000	1.731518
451.750000	1.725414
452.000000	1.714122
452.250000	1.707561
452.500000	1.696117
452.750000	1.688640
453.000000	1.677958
453.250000	1.668803
453.500000	1.659647
453.750000	1.648508
454.000000	1.640726
454.250000	1.628366
454.500000	1.621195
454.750000	1.608072
455.000000	1.600900
455.250000	1.587777
455.500000	1.579690
455.750000	1.567941
456.000000	1.558328
456.250000	1.547951
456.500000	1.536507
456.750000	1.527352
457.000000	1.513771
457.250000	1.505531
457.500000	1.491341
457.750000	1.483253
458.000000	1.469368
458.250000	1.460517
458.500000	1.447700
458.750000	1.436561
459.000000	1.425116
459.250000	1.412604
459.500000	1.402838
459.750000	1.388190
460.000000	1.379492
460.250000	1.364538
460.500000	1.355077
460.750000	1.340581
461.000000	1.330663
461.250000	1.316930
461.500000	1.305486
461.750000	1.293736
462.000000	1.280308
462.250000	1.269017
462.500000	1.254521
462.750000	1.244602
463.000000	1.228885
463.250000	1.219120
463.500000	1.204013
463.750000	1.193484
464.000000	1.178531
464.250000	1.167086
464.500000	1.153353
464.750000	1.139925
465.000000	1.127718
465.250000	1.112612
465.500000	1.101625
465.750000	1.085908
466.000000	1.075227
466.250000	1.059663
466.500000	1.048371
466.750000	1.033570
467.000000	1.020905
467.250000	1.006256
467.500000	0.992523
467.750000	0.980011
468.000000	0.964446
468.250000	0.953155
468.500000	0.936675
468.750000	0.925689
469.000000	0.909056
469.250000	0.897612
469.500000	0.881895
469.750000	0.869383
470.000000	0.854429
470.250000	0.840848
470.500000	0.827726
470.750000	0.811856
471.000000	0.800259
471.250000	0.783322
471.500000	0.771878
471.750000	0.755245
472.000000	0.743954
472.250000	0.727321
472.500000	0.714656
472.750000	0.699702
473.000000	0.685054
473.250000	0.672236
473.500000	0.656214
473.750000	0.644312
474.000000	0.627527
474.250000	0.615778
474.500000	0.598383
474.750000	0.586480
475.000000	0.570611
475.250000	0.557488
475.500000	0.542687
475.750000	0.528496
476.000000	0.515526
476.250000	0.499504
476.500000	0.486992
476.750000	0.470665
477.000000	0.458610
477.250000	0.442130
477.500000	0.429770
477.750000	0.413138
478.000000	0.400473
478.250000	0.385672
478.500000	0.371633
478.750000	0.358053
479.000000	0.342489
479.250000	0.330129
479.500000	0.313497
479.750000	0.301747
480.000000	0.285420
480.250000	0.272908
480.500000	0.256886
480.750000	0.244068
481.000000	0.229267
481.250000	0.215534
481.500000	0.202564
481.750000	0.187304
482.000000	0.175097
482.250000	0.158923
482.500000	0.147326
482.750000	0.131456
483.000000	0.119402
483.250000	0.103532
483.500000	0.091325
483.750000	0.076677
484.000000	0.063096
484.250000	0.049821
484.500000	0.035477
484.750000	0.023423
485.000000	0.007706
485.250000	-0.003738
485.500000	-0.019150
485.750000	-0.030289
486.000000	-0.045396
486.250000	-0.057145
486.500000	-0.071489
486.750000	-0.084611
487.000000	-0.097429
487.250000	-0.111315
487.500000	-0.122759
487.750000	-0.137407
488.000000	-0.148241
488.250000	-0.163195
488.500000	-0.173571
488.750000	-0.188525
489.000000	-0.199664
489.250000	-0.213550
489.500000	-0.225299
489.750000	-0.237507
490.000000	-0.251240
490.250000	-0.262074
490.500000	-0.275959
490.750000	-0.286488
491.000000	-0.300832
491.250000	-0.310903
491.500000	-0.324788
491.750000	-0.335012
492.000000	-0.348287
492.250000	-0.359884
492.500000	-0.371633
492.750000	-0.383993
493.000000	-0.394369
493.250000	-0.407797
493.500000	-0.417411
493.750000	-0.431296
494.000000	-0.440146
494.250000	-0.453727
494.500000	-0.463188
494.750000	-0.475242
495.000000	-0.485008
495.250000	-0.496452
495.500000	-0.507439
495.750000	-0.517052
496.000000	-0.529259
496.250000	-0.538109
496.500000	-0.550774
496.750000	-0.559014
497.000000	-0.571679
497.250000	-0.580072
497.500000	-0.592126
497.750000	-0.601434
498.000000	-0.611658
498.250000	-0.621881
498.500000	-0.630884
498.750000	-0.642176
499.000000	-0.650263
499.250000	-0.661707
499.500000	-0.669490
499.750000	-0.680934
500.000000	-0.687953
500.250000	-0.698634
500.500000	-0.707179
500.750000	-0.716335
501.000000	-0.725948
501.250000	-0.733730
501.500000	-0.744106
501.750000	-0.750820
502.000000	-0.761654
502.250000	-0.767910
502.500000	-0.778286
502.750000	-0.784848
503.000000	-0.794461
503.250000	-0.801480
503.500000	-0.810330
503.750000	-0.818265
504.000000	-0.825589
504.250000	-0.834134
504.500000	-0.840238
504.750000	-0.849851
505.000000	-0.855192
505.250000	-0.864652
505.500000	-0.869993
505.750000	-0.879149
506.000000	-0.884947
506.250000	-0.892424
506.500000	-0.898833
506.750000	-0.905241
507.000000	-0.912718
507.250000	-0.917601
507.500000	-0.925841
507.750000	-0.930419
508.000000	-0.938354
508.250000	-0.942626
508.500000	-0.950103
508.750000	-0.954833
509.000000	-0.961547
509.250000	-0.966735
509.500000	-0.972076
509.750000	-0.978180
510.000000	-0.981994
510.250000	-0.989166
510.500000	-0.992370
510.750000	-0.999390
511.000000	-1.002441
511.250000	-1.009308
511.500000	-1.012512
511.750000	-1.017853
512.000000	-1.021973
512.250000	-1.026245
512.500000	-1.031434
512.750000	-1.034333
513.000000	-1.041352
513.250000	-1.042573
513.500000	-1.048524
513.750000	-1.050050
514.000000	-1.055543
514.250000	-1.057679
514.500000	-1.061952
514.750000	-1.065156
515.000000	-1.068208
515.250000	-1.072023
515.500000	-1.073854
515.750000	-1.078737
516.000000	-1.080110
516.250000	-1.084688
516.500000	-1.085451
516.750000	-1.089723
517.000000	-1.090486
517.250000	-1.093538
517.500000	-1.095216
517.750000	-1.097200
518.000000	-1.099947
518.250000	-1.100404
518.500000	-1.103761
518.750000	-1.103761
519.000000	-1.107118
519.250000	-1.106661
519.500000	-1.109560
519.750000	-1.109102
520.000000	-1.111696
520.250000	-1.111849
520.500000	-1.113222
520.750000	-1.113985
521.000000	-1.113985
521.250000	-1.115511
521.500000	-1.114748
521.750000	-1.116884
522.000000	-1.115206
522.250000	-1.117342
522.500000	-1.115206
522.750000	-1.116884
523.000000	-1.115358
523.250000	-1.115511
523.500000	-1.115358
523.750000	-1.114443
524.000000	-1.115053
524.250000	-1.112764
524.500000	-1.113680
524.750000	-1.110933
525.000000	-1.111696
525.250000	-1.108797
525.500000	-1.109255
525.750000	-1.106355
526.000000	-1.105898
526.250000	-1.104524
526.500000	-1.102388
526.750000	-1.100862
527.000000	-1.097963
527.250000	-1.097505
527.500000	-1.093538
527.750000	-1.093080
528.000000	-1.089113
528.250000	-1.088045
528.500000	-1.084535
528.750000	-1.082551
529.000000	-1.079805
529.250000	-1.077058
529.500000	-1.074922
529.750000	-1.070344
530.000000	-1.068818
530.250000	-1.063630
530.500000	-1.062409
530.750000	-1.056916
531.000000	-1.055238
531.250000	-1.050202
531.500000	-1.047150
531.750000	-1.043031
532.000000	-1.038911
532.250000	-1.035554
532.500000	-1.030365
532.750000	-1.027161
533.000000	-1.020905
533.250000	-1.018463
533.500000	-1.011902
533.750000	-1.009003
534.000000	-1.002747
534.250000	-0.999084
534.500000	-0.993133
534.750000	-0.988403
535.000000	-0.983825
535.250000	-0.977569
535.500000	-0.974060
535.750000	-0.966583
536.000000	-0.962921
536.250000	-0.955291
536.500000	-0.951629
536.750000	-0.943999
537.000000	-0.939727
537.250000	-0.932860
537.500000	-0.926909
537.750000	-0.921263
538.000000	-0.913939
538.250000	-0.909056
538.500000	-0.900816
538.750000	-0.896239
539.000000	-0.887388
539.250000	-0.882811
539.500000	-0.873960
539.750000	-0.868772
540.000000	-0.860075
540.250000	-0.853513
540.500000	-0.846494
540.750000	-0.838254
541.000000	-0.832456
541.250000	-0.823758
541.500000	-0.817960
541.750000	-0.808499
542.000000	-0.802548
542.250000	-0.792630
542.500000	-0.786374
542.750000	-0.776913
543.000000	-0.770047
543.250000	-0.761807
543.500000	-0.752956
543.750000	-0.745632
544.000000	-0.736019
544.250000	-0.729305
544.500000	-0.718471
544.750000	-0.712062
545.000000	-0.700771
545.250000	-0.694209
545.500000	-0.684138
545.750000	-0.676051
546.000000	-0.666133
546.250000	-0.657282
546.500000	-0.648890
546.750000	-0.638209
547.000000	-0.630732
547.250000	-0.618830
547.500000	-0.611811
547.750000	-0.599756
548.000000	-0.592279
548.250000	-0.580682
548.500000	-0.572290
548.750000	-0.561761
549.000000	-0.551843
549.250000	-0.542229
549.500000	-0.530632
549.750000	-0.522545
550.000000	-0.510185
550.250000	-0.502556
550.500000	-0.489738
550.750000	-0.481804
551.000000	-0.469444
551.250000	-0.459983
551.500000	-0.448844
551.750000	-0.438315
552.000000	-0.427939
552.250000	-0.415885
552.500000	-0.407034
552.750000	-0.393759
553.000000	-0.385672
553.250000	-0.371939
553.500000	-0.363088
553.750000	-0.349813
554.000000	-0.340505
554.250000	-0.328145
554.500000	-0.317159
554.750000	-0.306325
555.000000	-0.293965
555.250000	-0.284199
555.500000	-0.270771
555.750000	-0.261463
556.000000	-0.247578
556.250000	-0.238117
556.500000	-0.224384
556.750000	-0.214771
557.000000	-0.201648
557.250000	-0.190509
557.500000	-0.178454
557.750000	-0.165942
558.000000	-0.154803
558.250000	-0.141222
558.500000	-0.131914
558.750000	-0.118029
559.000000	-0.107652
559.250000	-0.093462
559.500000	-0.083238
559.750000	-0.069810
560.000000	-0.058061
560.250000	-0.046006
560.500000	-0.033341
560.750000	-0.022354
561.000000	-0.008621
561.250000	0.001755
561.500000	0.016403
561.750000	0.026474
562.000000	0.041123
562.250000	0.051499
562.500000	0.065690
562.750000	0.076829
563.000000	0.089494
563.250000	0.102007
563.500000	0.113756
563.750000	0.127794
564.000000	0.138476
564.250000	0.153429
564.500000	0.163653
564.750000	0.178607
565.000000	0.188830
565.250000	0.203174
565.500000	0.214466
565.750000	0.228199
566.000000	0.240406
566.250000	0.252766
566.500000	0.266651
566.750000	0.277790
567.000000	0.292439
567.250000	0.302663
567.500000	0.317769
567.750000	0.327382
568.000000	0.342947
568.250000	0.353475
568.500000	0.367514
568.750000	0.379568
569.000000	0.392081
569.250000	0.405356
569.500000	0.416190
569.750000	0.430838
570.000000	0.440604
570.250000	0.455711
570.500000	0.465629
570.750000	0.480735
571.000000	0.491112
571.250000	0.504845
571.500000	0.516594
571.750000	0.529259
572.000000	0.542229
572.250000	0.553674
572.500000	0.567559
572.750000	0.578088
573.000000	0.592737
573.250000	0.602350
573.500000	0.617151
573.750000	0.627527
574.000000	0.641566
574.250000	0.652247
574.500000	0.664759
574.750000	0.676966
575.000000	0.688258
575.250000	0.701381
575.500000	0.711910
575.750000	0.726406
576.000000	0.735866
576.250000	0.750668
576.500000	0.760586
576.750000	0.774624
577.000000	0.784695
577.250000	0.797360
577.500000	0.808499
577.750000	0.819791
578.000000	0.832303
578.250000	0.842374
578.500000	0.855802
578.750000	0.865110
579.000000	0.878691
579.250000	0.888304
579.500000	0.901427
579.750000	0.911345
580.000000	0.923095
580.250000	0.934386
580.500000	0.944457
580.750000	0.956970
581.000000	0.966278
581.250000	0.979706
581.500000	0.988251
581.750000	1.001984
582.000000	1.010529
582.250000	1.023041
582.500000	1.032197
582.750000	1.043183
583.000000	1.054322
583.250000	1.063630
583.500000	1.075685
583.750000	1.083925
584.000000	1.097200
584.250000	1.104677
584.500000	1.117647
584.750000	1.125124
585.000000	1.137179
585.250000	1.145571
585.500000	1.156100
585.750000	1.166171
586.000000	1.175021
586.250000	1.186618
586.500000	1.193637
586.750000	1.206149
587.000000	1.212863
587.250000	1.225223
587.500000	1.231479
587.750000	1.242924
588.000000	1.250401
588.250000	1.259861
588.500000	1.269169
588.750000	1.277104
589.000000	1.287938
589.250000	1.294499
589.500000	1.305791
589.750000	1.311437
590.000000	1.323033
590.250000	1.328984
590.500000	1.339513
590.750000	1.346380
591.000000	1.355688
591.250000	1.363165
591.500000	1.370794
591.750000	1.379797
592.000000	1.385290
592.250000	1.395666
592.500000	1.400549
592.750000	1.410926
593.000000	1.415961
593.250000	1.425574
593.500000	1.431220
593.750000	1.439460
594.000000	1.446174
594.250000	1.452888
594.500000	1.461280
594.750000	1.466316
595.000000	1.474861
595.250000	1.479438
595.500000	1.488136
595.750000	1.492409
596.000000	1.500801
596.250000	1.505684
596.500000	1.513008
596.750000	1.518502
597.000000	1.524453
597.250000	1.531167
597.500000	1.535439
597.750000	1.542916
598.000000	1.546426
598.250000	1.553750
598.500000	1.557565
598.750000	1.564431
599.000000	1.568399
599.250000	1.574044
599.500000	1.578164
599.750000	1.582742
600.000000	1.588540
600.250000	1.592050
600.500000	1.598611
600.750000	1.601053
601.000000	1.607462
601.250000	1.609445
601.500000	1.615549
601.750000	1.617533
602.000000	1.622873
602.250000	1.626078
602.500000	1.629587
602.750000	1.633707
603.000000	1.635996
603.250000	1.641337
603.500000	1.642252
603.750000	1.647745
604.000000	1.648508
604.250000	1.653697
604.500000	1.654307
604.750000	1.658579
605.000000	1.660716
605.250000	1.663462
605.500000	1.666209
605.750000	1.667124
606.000000	1.671092
606.250000	1.671092
606.500000	1.675364
606.750000	1.675059
607.000000	1.679026
607.250000	1.678569
607.500000	1.681315
607.750000	1.682078
608.000000	1.683757
608.250000	1.685130
608.500000	1.685435
608.750000	1.687877
609.000000	1.686656
609.250000	1.689708
609.500000	1.687877
609.750000	1.690318
610.000000	1.688792
610.250000	1.690623
610.500000	1.689555
610.750000	1.689860
611.000000	1.690471
611.250000	1.689860
611.500000	1.691081
611.750000	1.689403
612.000000	1.690776
612.250000	1.687877
612.500000	1.689403
612.750000	1.686656
613.000000	1.687419
613.250000	1.685283
613.500000	1.684825
613.750000	1.683604
614.000000	1.681468
614.250000	1.681315
614.500000	1.678111
614.750000	1.678721
615.000000	1.674449
615.250000	1.675212
615.500000	1.670939
615.750000	1.670787
616.000000	1.667124
616.250000	1.665599
616.500000	1.663462
616.750000	1.660105
617.000000	1.658732
617.250000	1.654612
617.500000	1.653849
617.750000	1.648508
618.000000	1.647745
618.250000	1.642557
618.500000	1.641184
618.750000	1.636149
619.000000	1.633707
619.250000	1.630198
619.500000	1.625772
619.750000	1.623484
620.000000	1.617685
620.250000	1.616007
620.500000	1.609751
620.750000	1.607919
621.000000	1.601663
621.250000	1.599069
621.500000	1.593576
621.750000	1.589609
622.000000	1.585031
622.250000	1.579843
622.500000	1.576028
622.750000	1.570077
623.000000	1.566873
623.250000	1.559701
623.500000	1.556344
623.750000	1.549172
624.000000	1.545357
624.250000	1.538338
624.500000	1.533913
624.750000	1.527962
625.000000	1.522316
625.250000	1.517281
625.500000	1.509956
625.750000	1.505684
626.000000	1.497292
626.250000	1.493629
626.500000	1.485237
626.750000	1.480507
627.000000	1.472419
627.250000	1.467079
627.500000	1.460060
627.750000	1.453346
628.000000	1.446784
628.250000	1.438392
628.500000	1.432746
628.750000	1.424048
629.000000	1.419471
629.250000	1.409857
629.500000	1.404822
629.750000	1.395209
630.000000	1.389105
630.250000	1.380560
630.500000	1.373541
630.750000	1.366217
631.000000	1.357214
631.250000	1.350805
631.500000	1.340887
631.750000	1.334936
632.000000	1.324865
632.250000	1.319677
632.500000	1.309148
632.750000	1.302892
633.000000	1.292363
633.250000	1.285191
633.500000	1.276493
633.750000	1.267033
634.000000	1.259556
634.250000	1.249027
634.500000	1.242466
634.750000	1.231632
635.000000	1.225071
635.250000	1.213931
635.500000	1.206912
635.750000	1.196078
636.000000	1.187991
636.250000	1.178378
636.500000	1.169070
636.750000	1.160372
637.000000	1.149691
637.250000	1.142214
637.500000	1.130159
637.750000	1.122683
638.000000	1.110475
638.250000	1.102846
638.500000	1.091554
638.750000	1.083162
639.000000	1.072328
639.250000	1.062715
639.500000	1.053407
639.750000	1.041505
640.000000	1.032959
640.250000	1.020752
640.500000	1.012970
640.750000	1.000305
641.000000	0.992065
641.250000	0.980468
641.500000	0.971313
641.750000	0.960174
642.000000	0.949645
642.250000	0.939879
642.500000	0.928435
642.750000	0.919280
643.000000	0.907073
643.250000	0.898222
643.500000	0.885252
643.750000	0.877012
644.000000	0.864195
644.250000	0.855192
644.500000	0.843595
644.750000	0.832914
645.000000	0.822080
645.250000	0.810483
645.500000	0.801022
645.750000	0.787900
646.000000	0.779812
646.250000	0.766232
646.500000	0.757534
646.750000	0.743954
647.000000	0.735103
647.250000	0.722438
647.500000	0.712520
647.750000	0.700771
648.000000	0.689174
648.250000	0.679103
648.500000	0.666590
648.750000	0.657893
649.000000	0.644312
649.250000	0.635462
649.500000	0.621576
649.750000	0.612879
650.000000	0.599603
650.250000	0.589227
650.500000	0.577630
650.750000	0.566033
651.000000	0.555962
651.250000	0.542687
651.500000	0.533989
651.750000	0.520104
652.000000	0.512169
652.250000	0.497978
652.500000	0.488975
652.750000	0.476005
653.000000	0.465782
653.250000	0.453880
653.500000	0.442741
653.750000	0.431907
654.000000	0.419394
654.250000	0.410086
654.500000	0.396658
654.750000	0.387655
655.000000	0.374533
655.250000	0.365072
655.500000	0.351949
655.750000	0.341878
656.000000	0.330129
656.250000	0.318685
656.500000	0.308766
656.750000	0.296101
657.000000	0.286946
657.250000	0.273976
657.500000	0.264973
657.750000	0.251850
658.000000	0.242695
658.250000	0.229419
658.500000	0.219959
658.750000	0.208362
659.000000	0.197833
659.250000	0.186847
659.500000	0.175402
659.750000	0.165789
660.000000	0.153277
660.250000	0.144427
660.500000	0.131304
660.750000	0.122759
661.000000	0.109789
661.250000	0.100786
661.500000	0.088884
661.750000	0.078660
662.000000	0.067826
662.250000	0.056535
662.500000	0.046921
662.750000	0.034562
663.000000	0.026780
663.250000	0.013809
663.500000	0.005570
663.750000	-0.006638
664.000000	-0.015183
664.250000	-0.027085
664.500000	-0.036545
664.750000	-0.047074
665.000000	-0.057450
665.250000	-0.067521
665.500000	-0.078050
665.750000	-0.086595
666.000000	-0.099107
666.250000	-0.106889
666.500000	-0.118791
666.750000	-0.126268
667.000000	-0.138018
667.250000	-0.146563
667.500000	-0.157549
667.750000	-0.166552
668.000000	-0.175860
668.250000	-0.186542
668.500000	-0.194476
668.750000	-0.205921
669.000000	-0.213245
669.250000	-0.224689
669.500000	-0.231556
669.750000	-0.242847
670.000000	-0.250477
670.250000	-0.260700
670.500000	-0.269398
670.750000	-0.277943
671.000000	-0.287404
671.250000	-0.294423
671.500000	-0.305409
671.750000	-0.311971
672.000000	-0.323110
672.250000	-0.329366
672.500000	-0.339895
672.750000	-0.346761
673.000000	-0.356222
673.250000	-0.364157
673.500000	-0.372549
673.750000	-0.381399
674.000000	-0.388571
674.250000	-0.398489
674.500000	-0.404135
674.750000	-0.414511
675.000000	-0.420310
675.250000	-0.430381
675.500000	-0.436637
675.750000	-0.444877
676.000000	-0.452049
676.250000	-0.459525
676.500000	-0.468071
676.750000	-0.474174
677.000000	-0.483330
677.250000	-0.488518
677.500000	-0.497978
677.750000	-0.502556
678.000000	-0.511864
678.250000	-0.516747
678.500000	-0.525292
678.750000	-0.531395
679.000000	-0.538567
679.250000	-0.545892
679.500000	-0.551690
679.750000	-0.560082
680.000000	-0.564660
680.250000	-0.573205
680.500000	-0.577020
680.750000	-0.585565
681.000000	-0.589685
681.250000	-0.597314
681.500000	-0.602350
681.750000	-0.608301
682.000000	-0.614710
682.250000	-0.618982
682.500000	-0.626459
682.750000	-0.630426
683.000000	-0.637903
683.250000	-0.641718
683.500000	-0.649042
683.750000	-0.652399
684.000000	-0.659113
684.250000	-0.663386
684.500000	-0.668574
684.750000	-0.673915
685.000000	-0.677729
685.250000	-0.684138
685.500000	-0.686885
685.750000	-0.693294
686.000000	-0.696345
686.250000	-0.702144
686.500000	-0.705043
686.750000	-0.710994
687.000000	-0.713893
687.250000	-0.718471
687.500000	-0.722744
687.750000	-0.726406
688.000000	-0.730983
688.250000	-0.733425
688.500000	-0.738918
688.750000	-0.740902
689.000000	-0.746242
689.250000	-0.747921
689.500000	-0.752804
689.750000	-0.754635
690.000000	-0.758602
690.250000	-0.761654
690.500000	-0.764401
690.750000	-0.767910
691.000000	-0.769894
691.250000	-0.773861
691.500000	-0.774929
691.750000	-0.779355
692.000000	-0.779965
692.250000	-0.783932
692.500000	-0.784695
692.750000	-0.788052
693.000000	-0.789425
693.250000	-0.791867
693.500000	-0.794308
693.750000	-0.795377
694.000000	-0.798733
694.250000	-0.798733
694.500000	-0.802396
694.750000	-0.802243
695.000000	-0.805600
695.250000	-0.805142
695.500000	-0.808042
695.750000	-0.807736
696.000000	-0.808804
696.250000	-0.810025
696.500000	-0.810330
696.750000	-0.812467
697.000000	-0.811551
697.250000	-0.814145
697.500000	-0.812924
697.750000	-0.815518
698.000000	-0.813993
698.250000	-0.815671
698.500000	-0.815061
698.750000	-0.815518
699.000000	-0.815671
699.250000	-0.815366
699.500000	-0.816434
699.750000	-0.814450
700.000000	-0.815824
700.250000	-0.813382
700.500000	-0.815061
700.750000	-0.812314
701.000000	-0.813230
701.250000	-0.811399
701.500000	-0.811093
701.750000	-0.809720
702.000000	-0.808499
702.250000	-0.808347
702.500000	-0.806210
702.750000	-0.806821
703.000000	-0.803311
703.250000	-0.803616
703.500000	-0.800717
703.750000	-0.800565
704.000000	-0.797513
704.250000	-0.796292
704.500000	-0.794614
704.750000	-0.792172
705.000000	-0.790799
705.250000	-0.787594
705.500000	-0.787289
705.750000	-0.783169
706.000000	-0.782406
706.250000	-0.778134
706.500000	-0.776913
706.750000	-0.773098
707.000000	-0.771115
707.250000	-0.767910
707.500000	-0.764706
707.750000	-0.762875
708.000000	-0.758602
708.250000	-0.756771
708.500000	-0.751888
708.750000	-0.750210
709.000000	-0.745022
709.250000	-0.743191
709.500000	-0.738308
709.750000	-0.736019
710.000000	-0.731594
710.250000	-0.728084
710.500000	-0.724727
710.750000	-0.720150
711.000000	-0.717403
711.250000	-0.711757
711.500000	-0.709163
711.750000	-0.702907
712.000000	-0.700313
712.250000	-0.694514
712.500000	-0.691310
712.750000	-0.686122
713.000000	-0.681544
713.250000	-0.677272
713.500000	-0.671626
713.750000	-0.667659
714.000000	-0.661250
714.250000	-0.657740
714.500000	-0.650874
714.750000	-0.647059
715.000000	-0.640192
715.250000	-0.636530
715.500000	-0.629664
715.750000	-0.624628
716.000000	-0.619135
716.250000	-0.613031
716.500000	-0.608301
716.750000	-0.601892
717.000000	-0.597162
717.250000	-0.589837
717.500000	-0.585565
717.750000	-0.577935
718.000000	-0.573053
718.250000	-0.565576
718.500000	-0.560082
718.750000	-0.553216
719.000000	-0.546349
719.250000	-0.540856
719.500000	-0.533227
719.750000	-0.528191
720.000000	-0.520256
720.250000	-0.514611
720.500000	-0.506371
720.750000	-0.500725
721.000000	-0.492332
721.250000	-0.486229
721.500000	-0.479057
721.750000	-0.472343
722.000000	-0.465782
722.250000	-0.457542
722.500000	-0.451133
722.750000	-0.442435
723.000000	-0.436637
723.250000	-0.427634
723.500000	-0.421530
723.750000	-0.412985
724.000000	-0.405966
724.250000	-0.397574
724.500000	-0.390249
724.750000	-0.382467
725.000000	-0.374075
725.250000	-0.366903
725.500000	-0.358053
725.750000	-0.351186
726.000000	-0.342031
726.250000	-0.335012
726.500000	-0.325704
726.750000	-0.318227
727.000000	-0.309377
727.250000	-0.301137
727.500000	-0.292592
727.750000	-0.284352
728.000000	-0.275959
728.250000	-0.267109
728.500000	-0.259480
728.750000	-0.249866
729.000000	-0.242390
729.250000	-0.232624
729.500000	-0.224689
729.750000	-0.215381
730.000000	-0.206836
730.250000	-0.197681
730.500000	-0.189288
730.750000	-0.180285
731.000000	-0.170977
731.250000	-0.162585
731.500000	-0.152819
731.750000	-0.144274
732.000000	-0.134051
732.250000	-0.125963
732.500000	-0.116045
732.750000	-0.107195
733.000000	-0.097734
733.250000	-0.088884
733.500000	-0.079576
733.750000	-0.069505
734.000000	-0.060807
734.250000	-0.050736
734.500000	-0.042191
734.750000	-0.031815
735.000000	-0.023270
735.250000	-0.013046
735.500000	-0.004196
735.750000	0.005570
736.000000	0.015030
736.250000	0.024949
736.500000	0.034867
736.750000	0.044175
737.000000	0.054551
737.250000	0.063249
737.500000	0.074083
737.750000	0.082628
738.000000	0.093614
738.250000	0.102159
738.500000	0.112383
738.750000	0.121843
739.000000	0.131914
739.250000	0.141985
739.500000	0.150988
739.750000	0.161975
740.000000	0.170520
740.250000	0.181506
740.500000	0.189899
740.750000	0.201190
741.000000	0.209735
741.250000	0.220417
741.500000	0.229725
741.750000	0.239643
742.000000	0.250172
742.250000	0.259022
742.500000	0.270008
742.750000	0.278859
743.000000	0.290303
743.250000	0.298695
743.500000	0.309834
743.750000	0.318837
744.000000	0.329824
744.250000	0.338979
744.500000	0.349050
744.750000	0.359274
745.000000	0.368734
745.250000	0.379721
745.500000	0.388571
745.750000	0.399558
746.000000	0.407950
746.250000	0.418936
746.500000	0.427634
746.750000	0.438315
747.000000	0.447623
747.250000	0.457847
747.500000	0.468071
747.750000	0.477531
748.000000	0.487907
748.250000	0.496757
748.500000	0.508049
748.750000	0.516289
749.000000	0.527733
749.250000	0.536278
749.500000	0.546960
749.750000	0.555962
750.000000	0.565881
750.250000	0.575647
750.500000	0.585107
750.750000	0.595636
751.000000	0.603876
751.250000	0.614862
751.500000	0.622950
751.750000	0.633936
752.000000	0.642329
752.250000	0.653010
752.500000	0.661250
752.750000	0.671473
753.000000	0.680476
753.250000	0.689479
753.500000	0.699702
753.750000	0.708247
754.000000	0.718624
754.250000	0.726101
754.500000	0.736782
754.750000	0.744411
755.000000	0.754635
755.250000	0.763027
755.500000	0.772335
755.750000	0.781338
756.000000	0.790188
756.250000	0.799649
756.500000	0.807584
756.750000	0.817960
757.000000	0.825589
757.250000	0.835660
757.500000	0.842985
757.750000	0.852598
758.000000	0.860380
758.250000	0.869383
758.500000	0.877775
758.750000	0.886320
759.000000	0.895323
759.250000	0.902647
759.500000	0.911803
759.750000	0.919280
760.000000	0.928588
760.250000	0.934997
760.500000	0.944457
760.750000	0.951324
761.000000	0.960327
761.250000	0.967498
761.500000	0.975586
761.750000	0.983825
762.000000	0.991302
762.250000	0.999542
762.500000	1.006256
762.750000	1.015412
763.000000	1.021668
763.250000	1.030213
763.500000	1.036622
763.750000	1.044862
764.000000	1.051423
764.250000	1.059052
764.500000	1.066529
764.750000	1.073396
765.000000	1.081025
765.250000	1.087282
765.500000	1.095216
765.750000	1.100862
766.000000	1.109255
766.250000	1.114748
766.500000	1.122530
766.750000	1.128328
767.000000	1.135500
767.250000	1.142214
767.500000	1.148013
767.750000	1.155337
768.000000	1.160067
768.250000	1.167697
768.500000	1.172122
768.750000	1.179446
769.000000	1.184024
769.250000	1.191195
769.500000	1.195773
769.750000	1.202640
770.000000	1.207981
770.250000	1.213474
770.500000	1.219730
770.750000	1.224460
771.000000	1.230716
771.250000	1.234684
771.500000	1.241550
771.750000	1.245670
772.000000	1.252079
772.250000	1.255741
772.500000	1.261234
772.750000	1.266117
773.000000	1.271000
773.250000	1.275883
773.500000	1.279545
773.750000	1.284733
774.000000	1.288090
774.250000	1.293584
774.500000	1.296788
774.750000	1.302129
775.000000	1.305333
775.250000	1.310063
775.500000	1.313878
775.750000	1.317388
776.000000	1.321813
776.250000	1.324865
776.500000	1.329595
776.750000	1.332342
777.000000	1.336767
777.250000	1.339208
777.500000	1.343328
777.750000	1.346227
778.000000	1.349737
778.250000	1.352636
778.500000	1.355230
778.750000	1.358434
779.000000	1.360571
779.250000	1.363928
779.500000	1.365759
779.750000	1.369573
780.000000	1.370794
780.250000	1.374304
780.500000	1.375982
780.750000	1.378729
781.000000	1.380255
781.250000	1.382544
781.500000	1.384375
781.750000	1.385901
782.000000	1.388647
782.250000	1.389563
782.500000	1.392309
782.750000	1.393072
783.000000	1.395209
783.250000	1.396124
783.500000	1.397498
783.750000	1.398718
784.000000	1.399329
784.250000	1.400702
784.500000	1.400854
784.750000	1.402686
785.000000	1.402075
785.250000	1.403906
785.500000	1.403296
785.750000	1.404822
786.000000	1.404517
786.250000	1.405280
786.500000	1.405585
786.750000	1.405737
787.000000	1.405890
787.250000	1.405280
787.500000	1.405737
787.750000	1.404822
788.000000	1.405432
788.250000	1.404669
788.500000	1.404669
788.750000	1.403601
789.000000	1.403754
789.250000	1.403143
789.500000	1.402380
789.750000	1.401312
790.000000	1.400397
790.250000	1.399939
790.500000	1.397803
790.750000	1.397192
791.000000	1.395514
791.250000	1.394751
791.500000	1.392920
791.750000	1.392004
792.000000	1.389715
792.250000	1.388495
792.500000	1.386053
792.750000	1.384527
793.000000	1.382696
793.250000	1.380255
793.500000	1.378729
793.750000	1.375830
794.000000	1.374762
794.250000	1.371405
794.500000	1.370184
794.750000	1.366674
795.000000	1.364843
795.250000	1.361181
795.500000	1.359350
795.750000	1.355840
796.000000	1.353094
796.250000	1.350500
796.500000	1.346532
796.750000	1.343481
797.000000	1.339208
797.250000	1.336767
797.500000	1.332799
797.750000	1.330358
798.000000	1.326085
798.250000	1.323033
798.500000	1.318914
798.750000	1.315557
799.000000	1.311894
799.250000	1.307774
799.500000	1.304265
799.750000	1.299382
800.000000	1.296025
800.250000	1.291142
800.500000	1.288396
800.750000	1.282902
801.000000	1.279240
801.250000	1.275120
801.500000	1.270237
801.750000	1.265507
802.000000	1.260319
802.250000	1.256809
802.500000	1.250553
802.750000	1.246891
803.000000	1.240940
803.250000	1.237125
803.500000	1.230411
803.750000	1.225834
804.000000	1.220188
804.250000	1.215305
804.500000	1.210117
804.750000	1.204166
805.000000	1.199588
805.250000	1.193027
805.500000	1.188754
805.750000	1.181735
806.000000	1.177157
806.250000	1.169986
806.500000	1.165255
806.750000	1.158389
807.000000	1.152743
807.250000	1.146487
807.500000	1.140078
807.750000	1.134890
808.000000	1.126955
808.250000	1.122530
808.500000	1.114138
808.750000	1.109407
809.000000	1.101472
809.250000	1.096132
809.500000	1.088807
809.750000	1.082857
810.000000	1.075990
810.250000	1.068971
810.500000	1.062409
810.750000	1.054475
811.000000	1.048676
811.250000	1.040436
811.500000	1.035554
811.750000	1.027161
812.000000	1.021057
812.250000	1.012665
812.500000	1.005646
812.750000	0.998322
813.000000	0.990997
813.250000	0.984436
813.500000	0.975891
813.750000	0.970092
814.000000	0.961089
814.250000	0.955139
814.500000	0.945983
814.750000	0.939269
815.000000	0.930571
815.250000	0.923858
815.500000	0.915770
815.750000	0.907683
816.000000	0.900664
816.250000	0.891814
816.500000	0.884947
816.750000	0.875792
817.000000	0.869230
817.250000	0.859770
817.500000	0.853056
817.750000	0.843900
818.000000	0.836118
818.250000	0.827573
818.500000	0.819028
818.750000	0.811246
819.000000	0.802396
819.250000	0.794919
819.500000	0.785306
819.750000	0.778439
820.000000	0.768521
820.250000	0.761501
820.500000	0.751278
820.750000	0.743801
821.000000	0.734646
821.250000	0.726711
821.500000	0.718624
821.750000	0.709621
822.000000	0.701534
822.250000	0.692073
822.500000	0.684749
822.750000	0.674678
823.000000	0.667048
823.250000	0.657282
823.500000	0.649805
823.750000	0.640192
824.000000	0.632258
824.250000	0.623560
824.500000	0.614404
824.750000	0.606165
825.000000	0.596551
825.250000	0.588922
825.500000	0.578851
825.750000	0.571221
826.000000	0.561151
826.250000	0.553979
826.500000	0.544366
826.750000	0.535668
827.000000	0.526665
827.250000	0.517662
827.500000	0.509422
827.750000	0.499657
828.000000	0.491722
828.250000	0.481651
828.500000	0.474174
828.750000	0.463951
829.000000	0.456016
829.250000	0.446250
829.500000	0.437858
829.750000	0.428702
830.000000	0.419394
830.250000	0.411460
830.500000	0.401083
830.750000	0.393606
831.000000	0.383078
831.250000	0.376364
831.500000	0.365988
831.750000	0.358053
832.000000	0.348440
832.250000	0.340047
832.500000	0.330892
832.750000	0.321889
833.000000	0.313649
833.250000	0.304189
833.500000	0.296559
833.750000	0.286641
834.000000	0.279316
834.250000	0.268788
834.500000	0.261616
834.750000	0.252003
835.000000	0.243458
835.250000	0.234607
835.500000	0.225452
835.750000	0.217670
836.000000	0.207752
836.250000	0.200885
836.500000	0.190509
836.750000	0.183490
837.000000	0.172961
837.250000	0.165789
837.500000	0.156176
837.750000	0.148089
838.000000	0.139696
838.250000	0.130999
838.500000	0.123369
838.750000	0.114061
839.000000	0.107347
839.250000	0.097124
839.500000	0.090715
839.750000	0.080644
840.000000	0.073777
840.250000	0.064317
840.500000	0.056687
840.750000	0.048447
841.000000	0.039902
841.250000	0.032425
841.500000	0.023423
841.750000	0.017014
842.000000	0.007095
842.250000	0.000992
842.500000	-0.008316
842.750000	-0.014267
843.000000	-0.023423
843.250000	-0.030442
843.500000	-0.038376
843.750000	-0.046616
844.000000	-0.053788
844.250000	-0.062333
844.500000	-0.068284
844.750000	-0.077287
845.000000	-0.082780
845.250000	-0.092241
845.500000	-0.098039
845.750000	-0.106584
846.000000	-0.113146
846.250000	-0.120928
846.500000	-0.128099
846.750000	-0.134813
847.000000	-0.142748
847.250000	-0.148852
847.500000	-0.157702
847.750000	-0.162737
848.000000	-0.171588
848.250000	-0.176928
848.500000	-0.185016
848.750000	-0.190661
849.000000	-0.197986
849.250000	-0.204547
849.500000	-0.210956
849.750000	-0.218433
850.000000	-0.224384
850.250000	-0.232319
850.500000	-0.236896
850.750000	-0.245136
851.000000	-0.249866
851.250000	-0.257496
851.500000	-0.262226
851.750000	-0.269245
852.000000	-0.274281
852.250000	-0.280690
852.500000	-0.286641
852.750000	-0.292287
853.000000	-0.299153
853.250000	-0.303883
853.500000	-0.311208
853.750000	-0.315480
854.000000	-0.322957
854.250000	-0.327077
854.500000	-0.334249
854.750000	-0.338216
855.000000	-0.344472
855.250000	-0.349203
855.500000	-0.354696
855.750000	-0.360189
856.000000	-0.364309
856.250000	-0.370565
856.500000	-0.374838
856.750000	-0.380941
857.000000	-0.384451
857.250000	-0.390402
857.500000	-0.394369
857.750000	-0.399710
858.000000	-0.404288
858.250000	-0.408713
858.500000	-0.413748
858.750000	-0.417716
859.000000	-0.423362
859.250000	-0.426719
859.500000	-0.432212
859.750000	-0.435111
860.000000	-0.440604
860.250000	-0.444114
860.500000	-0.448997
860.750000	-0.452506
861.000000	-0.456016
861.250000	-0.460441
861.500000	-0.463645
861.750000	-0.468071
862.000000	-0.470665
862.250000	-0.475395
862.500000	-0.477836
862.750000	-0.482719
863.000000	-0.485161
863.250000	-0.488975
863.500000	-0.491875
863.750000	-0.495079
864.000000	-0.498436
864.250000	-0.500877
864.500000	-0.504540
864.750000	-0.506676
865.000000	-0.510491
865.250000	-0.512474
865.500000	-0.515984
865.750000	-0.517815
866.000000	-0.521172
866.250000	-0.523461
866.500000	-0.526055
866.750000	-0.528191
867.000000	-0.530175
867.250000	-0.533074
867.500000	-0.534142
867.750000	-0.537804
868.000000	-0.538720
868.250000	-0.541924
868.500000	-0.542687
868.750000	-0.545281
869.000000	-0.546502
869.250000	-0.548180
869.500000	-0.550164
869.750000	-0.551080
870.000000	-0.553368
870.250000	-0.553979
870.500000	-0.556420
870.750000	-0.556878
871.000000	-0.558251
871.250000	-0.559319
871.500000	-0.560693
871.750000	-0.561456
872.000000	-0.561913
872.250000	-0.563134
872.500000	-0.563134
872.750000	-0.564813
873.000000	-0.564508
873.250000	-0.566186
873.500000	-0.565576
873.750000	-0.566949
874.000000	-0.566796
874.250000	-0.567559
874.500000	-0.567407
874.750000	-0.567712
875.000000	-0.567712
875.250000	-0.567864
875.500000	-0.568322
875.750000	-0.567407
876.000000	-0.567864
876.250000	-0.566644
876.500000	-0.566949
876.750000	-0.565728
877.000000	-0.565728
877.250000	-0.564813
877.500000	-0.564660
877.750000	-0.564202
878.000000	-0.562371
878.250000	-0.562219
878.500000	-0.560388
878.750000	-0.560540
879.000000	-0.558556
879.250000	-0.558556
879.500000	-0.556725
879.750000	-0.555810
880.000000	-0.554284
880.250000	-0.553063
880.500000	-0.551843
880.750000	-0.550011
881.000000	-0.548638
881.250000	-0.546807
881.500000	-0.546044
881.750000	-0.542992
882.000000	-0.541924
882.250000	-0.539483
882.500000	-0.537804
882.750000	-0.535515
883.000000	-0.533684
883.250000	-0.531548
883.500000	-0.528801
883.750000	-0.526970
884.000000	-0.524071
884.250000	-0.522698
884.500000	-0.519036
884.750000	-0.517662
885.000000	-0.514305
885.250000	-0.512322
885.500000	-0.509117
885.750000	-0.506828
886.000000	-0.503777
886.250000	-0.500725
886.500000	-0.497978
886.750000	-0.494163
887.000000	-0.491569
887.250000	-0.487449
887.500000	-0.485008
887.750000	-0.480888
888.000000	-0.477989
888.250000	-0.474022
888.500000	-0.470817
888.750000	-0.467460
889.000000	-0.463645
889.250000	-0.459983
889.500000	-0.455863
889.750000	-0.452354
890.000000	-0.447623
890.250000	-0.444724
890.500000	-0.439384
890.750000	-0.436484
891.000000	-0.431144
891.250000	-0.427482
891.500000	-0.422446
891.750000	-0.418784
892.000000	-0.414511
892.250000	-0.409628
892.500000	-0.405661
892.750000	-0.400320
893.000000	-0.396658
893.250000	-0.391165
893.500000	-0.387045
893.750000	-0.381094
894.000000	-0.376822
894.250000	-0.371633
894.500000	-0.366903
894.750000	-0.362173
895.000000	-0.356222
895.250000	-0.351949
895.500000	-0.345541
895.750000	-0.341421
896.000000	-0.335622
896.250000	-0.331197
896.500000	-0.325093
896.750000	-0.320363
897.000000	-0.314260
897.250000	-0.308766
897.500000	-0.303578
897.750000	-0.297932
898.000000	-0.292439
898.250000	-0.285725
898.500000	-0.280690
898.750000	-0.273976
899.000000	-0.269093
899.250000	-0.262837
899.500000	-0.256886
899.750000	-0.250019
900.000000	-0.244831
900.250000	-0.238575
900.500000	-0.232319
900.750000	-0.225910
901.000000	-0.219806
901.250000	-0.213855
901.500000	-0.206836
901.750000	-0.201038
902.000000	-0.193561
902.250000	-0.187915
902.500000	-0.180743
902.750000	-0.175097
903.000000	-0.168231
903.250000	-0.161364
903.500000	-0.154803
903.750000	-0.147631
904.000000	-0.141222
904.250000	-0.134203
904.500000	-0.127947
904.750000	-0.120470
905.000000	-0.114214
905.250000	-0.106432
905.500000	-0.100328
905.750000	-0.092851
906.000000	-0.086595
906.250000	-0.080339
906.500000	-0.072709
906.750000	-0.066300
907.000000	-0.058518
907.250000	-0.051957
907.500000	-0.044175
907.750000	-0.037461
908.000000	-0.029526
908.250000	-0.023117
908.500000	-0.015183
908.750000	-0.008011
909.000000	-0.000534
909.250000	0.007401
909.500000	0.014267
909.750000	0.022507
910.000000	0.029068
910.250000	0.037003
910.500000	0.043870
910.750000	0.051957
911.000000	0.058671
911.250000	0.067216
911.500000	0.073930
911.750000	0.081712
912.000000	0.089494
912.250000	0.096818
912.500000	0.105211
912.750000	0.112078
913.000000	0.120470
913.250000	0.127642
913.500000	0.136034
913.750000	0.142901
914.000000	0.151446
914.250000	0.158923
914.500000	0.166400
914.750000	0.174334
915.000000	0.181811
915.250000	0.190356
915.500000	0.197070
915.750000	0.205615
916.000000	0.212787
916.250000	0.221332
916.500000	0.228504
916.750000	0.237201
917.000000	0.244373
917.250000	0.252766
917.500000	0.260700
917.750000	0.268635
918.000000	0.277180
918.250000	0.284352
918.500000	0.292592
918.750000	0.299763
919.000000	0.308156
919.250000	0.315175
919.500000	0.323568
919.750000	0.330892
920.000000	0.339284
920.250000	0.347066
920.500000	0.354696
920.750000	0.362783
921.000000	0.370260
921.250000	0.379110
921.500000	0.386130
921.750000	0.394827
922.000000	0.401846
922.250000	0.409934
922.500000	0.417868
922.750000	0.425193
923.000000	0.433738
923.250000	0.441062
923.500000	0.449454
923.750000	0.456321
924.000000	0.464866
924.250000	0.471580
924.500000	0.479820
924.750000	0.487449
925.000000	0.495537
925.250000	0.502861
925.500000	0.510491
925.750000	0.518425
926.000000	0.525597
926.250000	0.533684
926.500000	0.539940
926.750000	0.548638
927.000000	0.555200
927.250000	0.563897
927.500000	0.570611
927.750000	0.578241
928.000000	0.585260
928.250000	0.592737
928.500000	0.600824
928.750000	0.608148
929.000000	0.616083
929.250000	0.622339
929.500000	0.630732
929.750000	0.637293
930.000000	0.644770
930.250000	0.651637
930.500000	0.659266
930.750000	0.666133
931.000000	0.673609
931.250000	0.680781
931.500000	0.687648
931.750000	0.694667
932.000000	0.701076
932.250000	0.709316
932.500000	0.715267
932.750000	0.723354
933.000000	0.729305
933.250000	0.736171
933.500000	0.742123
933.750000	0.748989
934.000000	0.755703
934.250000	0.761959
934.500000	0.768978
934.750000	0.775082
935.000000	0.782406
935.250000	0.788510
935.500000	0.795377
935.750000	0.801022
936.000000	0.808042
936.250000	0.814145
936.500000	0.821317
936.750000	0.827268
937.000000	0.833524
937.250000	0.840391
937.500000	0.846494
937.750000	0.853208
938.000000	0.858701
938.250000	0.865568
938.500000	0.870909
938.750000	0.877623
939.000000	0.882811
939.250000	0.889525
939.500000	0.894713
939.750000	0.900969
940.000000	0.906615
940.250000	0.911498
940.500000	0.918212
940.750000	0.923095
941.000000	0.929351
941.250000	0.933928
941.500000	0.940642
941.750000	0.945220
942.000000	0.951019
942.250000	0.955901
942.500000	0.961547
942.750000	0.966888
943.000000	0.971618
943.250000	0.977569
943.500000	0.981537
943.750000	0.987640
944.000000	0.991302
944.250000	0.996948
944.500000	1.000916
944.750000	1.006256
945.000000	1.010681
945.250000	1.015412
945.500000	1.019837
945.750000	1.024109
946.000000	1.029145
946.250000	1.032654
946.500000	1.038148
946.750000	1.041657
947.000000	1.046540
947.250000	1.049897
947.500000	1.055390
947.750000	1.058595
948.000000	1.063020
948.250000	1.067445
948.500000	1.070802
948.750000	1.075380
949.000000	1.078126
949.250000	1.082704
949.500000	1.085451
949.750000	1.089876
950.000000	1.092927
950.250000	1.097658
950.500000	1.100099
950.750000	1.103609
951.000000	1.107118
951.250000	1.109865
951.500000	1.113680
951.750000	1.116121
952.000000	1.120088
952.250000	1.121614
952.500000	1.125734
952.750000	1.127108
953.000000	1.130922
953.250000	1.132906
953.500000	1.136721
953.750000	1.138857
954.000000	1.140841
954.250000	1.144350
954.500000	1.145419
954.750000	1.149386
955.000000	1.149691
955.250000	1.153811
955.500000	1.153964
955.750000	1.157015
956.000000	1.158389
956.250000	1.161288
956.500000	1.162814
956.750000	1.164187
957.000000	1.166323
957.250000	1.167239
957.500000	1.170138
957.750000	1.169986
958.000000	1.173190
958.250000	1.173037
958.500000	1.175937
958.750000	1.175937
959.000000	1.177920
959.250000	1.178531
959.500000	1.179904
959.750000	1.181430
960.000000	1.180819
960.250000	1.183261
960.500000	1.182498
960.750000	1.184939
961.000000	1.183719
961.250000	1.185855
961.500000	1.184939
961.750000	1.186313
962.000000	1.185855
962.250000	1.186465
962.500000	1.187533
962.750000	1.186465
963.000000	1.187839
963.250000	1.186465
963.500000	1.188296
963.750000	1.186313
964.000000	1.187991
964.250000	1.186465
964.500000	1.186923
964.750000	1.185855
965.000000	1.185397
965.250000	1.185245
965.500000	1.183871
965.750000	1.184329
966.000000	1.181888
966.250000	1.182956
966.500000	1.180514
966.750000	1.180972
967.000000	1.178073
967.250000	1.178378
967.500000	1.176394
967.750000	1.175479
968.000000	1.174411
968.250000	1.172427
968.500000	1.171969
968.750000	1.169528
969.000000	1.169070
969.250000	1.166323
969.500000	1.165866
969.750000	1.163272
970.000000	1.162509
970.250000	1.159457
970.500000	1.157931
970.750000	1.155947
971.000000	1.153506
971.250000	1.152132
971.500000	1.148775
971.750000	1.147402
972.000000	1.144503
972.250000	1.143282
972.500000	1.139620
972.750000	1.138094
973.000000	1.134585
973.250000	1.132296
973.500000	1.130007
973.750000	1.126345
974.000000	1.124514
974.250000	1.120241
974.500000	1.118868
974.750000	1.114900
975.000000	1.113069
975.250000	1.108949
975.500000	1.106661
975.750000	1.102998
976.000000	1.099489
976.250000	1.096132
976.500000	1.092470
976.750000	1.089570
977.000000	1.085145
977.250000	1.082704
977.500000	1.078279
977.750000	1.075380
978.000000	1.070802
978.250000	1.067903
978.500000	1.063630
978.750000	1.059663
979.000000	1.055848
979.250000	1.051576
979.500000	1.048066
979.750000	1.042878
980.000000	1.039979
980.250000	1.034791
980.500000	1.031739
980.750000	1.026245
981.000000	1.022889
981.250000	1.017853
981.500000	1.013428
981.750000	1.009461
982.000000	1.003967
982.250000	1.000000
982.500000	0.994354
982.750000	0.991150
983.000000	0.985046
983.250000	0.981537
983.500000	0.975891
983.750000	0.971466
984.000000	0.965972
984.250000	0.961242
984.500000	0.956359
984.750000	0.951019
985.000000	0.946288
985.250000	0.940490
985.500000	0.936217
985.750000	0.930114
986.000000	0.925841
986.250000	0.919738
986.500000	0.915160
986.750000	0.908598
987.000000	0.903563
987.250000	0.898222
987.500000	0.892424
987.750000	0.887541
988.000000	0.880522
988.250000	0.876097
988.500000	0.869383
988.750000	0.864958
989.000000	0.857939
989.250000	0.853361
989.500000	0.846799
989.750000	0.841306
990.000000	0.835050
990.250000	0.828946
990.500000	0.822995
990.750000	0.816434
991.000000	0.811399
991.250000	0.804074
991.500000	0.798886
991.750000	0.791562
992.000000	0.786984
992.250000	0.779812
992.500000	0.774319
992.750000	0.767758
993.000000	0.761654
993.250000	0.755398
993.500000	0.748379
993.750000	0.742885
994.000000	0.735561
994.250000	0.730220
994.500000	0.722896
994.750000	0.717708
995.000000	0.709926
995.250000	0.703670
995.500000	0.696956
995.750000	0.690547
996.000000	0.684291
996.250000	0.677119
996.500000	0.671626
996.750000	0.663691
997.000000	0.658656
997.250000	0.650568
997.500000	0.645228
997.750000	0.636988
998.000000	0.631495
998.250000	0.624475
998.500000	0.617914
998.750000	0.611353
999.000000	0.604028
999.250000	0.597772
999.500000	0.590295
999.750000	0.584192
1000.000000	0.576562
1000.250000	0.570459
1000.500000	0.562371
1000.750000	0.556115
1001.000000	0.548791
1001.250000	0.541924
1001.500000	0.534752
1001.750000	0.527733
1002.000000	0.521477
1002.250000	0.513695
1002.500000	0.507439
1002.750000	0.499504
1003.000000	0.494163
1003.250000	0.485771
1003.500000	0.479515
1003.750000	0.472190
1004.000000	0.465476
1004.250000	0.458305
1004.500000	0.451286
1004.750000	0.445029
1005.000000	0.437247
1005.250000	0.431144
1005.500000	0.422751
1005.750000	0.417258
1006.000000	0.408713
1006.250000	0.402609
1006.500000	0.394522
1006.750000	0.387961
1007.000000	0.381094
1007.250000	0.373770
1007.500000	0.367361
1007.750000	0.359884
1008.000000	0.353933
1008.250000	0.345541
1008.500000	0.339895
1008.750000	0.331960
1009.000000	0.325856
1009.250000	0.318685
1009.500000	0.312123
1009.750000	0.304494
1010.000000	0.297475
1010.250000	0.291218
1010.500000	0.283589
1010.750000	0.277333
1011.000000	0.269245
1011.250000	0.263294
1011.500000	0.255512
1011.750000	0.249409
1012.000000	0.242084
1012.250000	0.235828
1012.500000	0.228962
1012.750000	0.221942
1013.000000	0.216144
1013.250000	0.208362
1013.500000	0.202869
1013.750000	0.195087
1014.000000	0.189288
1014.250000	0.181659
1014.500000	0.175555
1014.750000	0.169146
1015.000000	0.162585
1015.250000	0.156176
1015.500000	0.149310
1015.750000	0.143053
1016.000000	0.135882
1016.250000	0.129931
1016.500000	0.122759
1016.750000	0.116808
1017.000000	0.109941
1017.250000	0.103838
1017.500000	0.096971
1017.750000	0.090562
1018.000000	0.084306
1018.250000	0.077440
1018.500000	0.071641
1018.750000	0.064622
1019.000000	0.059434
1019.250000	0.052110
1019.500000	0.047074
1019.750000	0.040208
1020.000000	0.034867
1020.250000	0.028458
1020.500000	0.022812
1020.750000	0.016709
1021.000000	0.010300
1021.250000	0.005264
1021.500000	-0.001602
1021.750000	-0.006332
1022.000000	-0.013504
1022.250000	-0.017929
1022.500000	-0.024796
1022.750000	-0.029679
1023.000000	-0.036088
1023.250000	-0.041733
1023.500000	-0.046921
1023.750000	-0.052873
1024.000000	-0.057450
1024.250000	-0.063706
1024.500000	-0.067826
1024.750000	-0.074235
1025.000000	-0.078355
1025.250000	-0.085069
1025.500000	-0.089647
1025.750000	-0.095293
1026.000000	-0.100633
1026.250000	-0.105516
1026.500000	-0.111315
1026.750000	-0.115434
1027.000000	-0.121386
1027.250000	-0.125353
1027.500000	-0.131456
1027.750000	-0.135271
1028.000000	-0.141375
1028.250000	-0.145342
1028.500000	-0.150835
1028.750000	-0.154955
1029.000000	-0.159686
1029.250000	-0.164721
1029.500000	-0.168841
1029.750000	-0.174029
1030.000000	-0.177386
1030.250000	-0.183185
1030.500000	-0.186084
1030.750000	-0.191424
1031.000000	-0.195239
1031.250000	-0.199817
1031.500000	-0.203632
1031.750000	-0.207904
1032.000000	-0.212482
1032.250000	-0.215991
1032.500000	-0.221332
1032.750000	-0.224231
1033.000000	-0.229725
1033.250000	-0.232319
1033.500000	-0.237049
1033.750000	-0.240558
1034.000000	-0.244831
1034.250000	-0.248188
1034.500000	-0.251698
1034.750000	-0.255207
1035.000000	-0.257954
1035.250000	-0.262531
1035.500000	-0.264820
1035.750000	-0.269551
1036.000000	-0.271839
1036.250000	-0.276570
1036.500000	-0.278706
1036.750000	-0.282521
1037.000000	-0.285267
1037.250000	-0.288167
1037.500000	-0.291218
1037.750000	-0.293507
1038.000000	-0.297169
1038.250000	-0.299001
1038.500000	-0.303120
1038.750000	-0.304494
1039.000000	-0.308461
1039.250000	-0.309682
1039.500000	-0.313344
1039.750000	-0.315175
1040.000000	-0.317617
1040.250000	-0.320363
1040.500000	-0.321889
1040.750000	-0.324788
1041.000000	-0.326009
1041.250000	-0.329671
1041.500000	-0.330739
1041.750000	-0.334249
1042.000000	-0.335317
1042.250000	-0.338216
1042.500000	-0.339742
1042.750000	-0.341421
1043.000000	-0.343862
1043.250000	-0.344930
1043.500000	-0.347677
1043.750000	-0.348135
1044.000000	-0.350881
1044.250000	-0.351186
1044.500000	-0.354086
1044.750000	-0.354391
1045.000000	-0.356680
1045.250000	-0.356985
1045.500000	-0.358968
1045.750000	-0.360189
1046.000000	-0.361105
1046.250000	-0.363241
1046.500000	-0.363088
1046.750000	-0.365682
1047.000000	-0.364920
1047.250000	-0.367666
1047.500000	-0.367361
1047.750000	-0.369192
1048.000000	-0.369497
1048.250000	-0.370565
1048.500000	-0.371328
1048.750000	-0.371328
1049.000000	-0.373007
1049.250000	-0.372549
1049.500000	-0.374228
1049.750000	-0.372549
1050.000000	-0.374533
1050.250000	-0.373312
1050.500000	-0.374685
1050.750000	-0.373922
1051.000000	-0.374838
1051.250000	-0.374685
1051.500000	-0.374228
1051.750000	-0.374838
1052.000000	-0.373770
1052.250000	-0.374533
1052.500000	-0.372549
1052.750000	-0.373465
1053.000000	-0.371939
1053.250000	-0.372396
1053.500000	-0.370871
1053.750000	-0.371023
1054.000000	-0.369802
1054.250000	-0.368887
1054.500000	-0.368887
1054.750000	-0.366598
1055.000000	-0.367361
1055.250000	-0.364309
1055.500000	-0.364920
1055.750000	-0.362325
1056.000000	-0.362631
1056.250000	-0.360647
1056.500000	-0.360189
1056.750000	-0.358511
1057.000000	-0.357290
1057.250000	-0.356527
1057.500000	-0.354391
1057.750000	-0.354086
1058.000000	-0.350881
1058.250000	-0.350881
1058.500000	-0.347829
1058.750000	-0.347524
1059.000000	-0.344472
1059.250000	-0.343557
1059.500000	-0.341421
1059.750000	-0.339132
1060.000000	-0.337301
1060.250000	-0.334554
1060.500000	-0.333486
1060.750000	-0.329976
1061.000000	-0.329519
1061.250000	-0.326009
1061.500000	-0.324941
1061.750000	-0.321736
1062.000000	-0.320058
1062.250000	-0.317006
1062.500000	-0.314412
1062.750000	-0.312276
1063.000000	-0.309071
1063.250000	-0.307240
1063.500000	-0.303578
1063.750000	-0.301747
1064.000000	-0.297932
1064.250000	-0.296407
1064.500000	-0.292439
1064.750000	-0.290303
1065.000000	-0.286641
1065.250000	-0.283742
1065.500000	-0.280690
1065.750000	-0.277333
1066.000000	-0.274891
1066.250000	-0.271077
1066.500000	-0.268788
1066.750000	-0.264057
1067.000000	-0.262074
1067.250000	-0.258106
1067.500000	-0.255512
1067.750000	-0.251545
1068.000000	-0.248188
1068.250000	-0.244526
1068.500000	-0.240864
1068.750000	-0.237964
1069.000000	-0.232776
1069.250000	-0.230182
1069.500000	-0.225147
1069.750000	-0.222248
1070.000000	-0.217517
1070.250000	-0.214466
1070.500000	-0.209888
1070.750000	-0.205921
1071.000000	-0.202106
1071.250000	-0.197528
1071.500000	-0.194324
1071.750000	-0.189136
1072.000000	-0.186084
1072.250000	-0.180438
1072.500000	-0.177539
1072.750000	-0.171893
1073.000000	-0.168536
1073.250000	-0.163806
1073.500000	-0.159380
1073.750000	-0.155261
1074.000000	-0.150378
1074.250000	-0.146563
1074.500000	-0.141222
1074.750000	-0.137560
1075.000000	-0.131609
1075.250000	-0.128099
1075.500000	-0.122606
1075.750000	-0.118639
1076.000000	-0.113298
1076.250000	-0.108568
1076.500000	-0.103838
1076.750000	-0.098344
1077.000000	-0.094072
1077.250000	-0.088426
1077.500000	-0.085069
1077.750000	-0.078508
1078.000000	-0.074846
1078.250000	-0.068742
1078.500000	-0.064622
1078.750000	-0.058976
1079.000000	-0.053788
1079.250000	-0.048600
1079.500000	-0.043565
1079.750000	-0.038682
1080.000000	-0.032578
1080.250000	-0.028305
1080.500000	-0.021286
1080.750000	-0.016861
1081.000000	-0.010452
1081.250000	-0.006027
1081.500000	0.000381
1081.750000	0.005417
1082.000000	0.011368
1082.250000	0.017014
1082.500000	0.022507
1082.750000	0.028305
1083.000000	0.033341
1083.250000	0.040055
1083.500000	0.044633
1083.750000	0.051499
1084.000000	0.056382
1084.250000	0.062943
1084.500000	0.067826
1084.750000	0.074235
1085.000000	0.080491
1085.250000	0.085222
1085.500000	0.092241
1085.750000	0.096971
1086.000000	0.104143
1086.250000	0.108721
1086.500000	0.115740
1086.750000	0.120470
1087.000000	0.127184
1087.250000	0.132830
1087.500000	0.138781
1087.750000	0.144732
1088.000000	0.150835
1088.250000	0.157397
1088.500000	0.162890
1088.750000	0.170062
1089.000000	0.175097
1089.250000	0.181811
1089.500000	0.187152
1089.750000	0.194171
1090.000000	0.199512
1090.250000	0.206073
1090.500000	0.212634
1090.750000	0.218128
1091.000000	0.224994
1091.250000	0.230182
1091.500000	0.237507
1091.750000	0.242237
1092.000000	0.249714
1092.250000	0.255055
1092.500000	0.262074
1092.750000	0.267720
1093.000000	0.273976
1093.250000	0.280079
1093.500000	0.286336
1093.750000	0.293050
1094.000000	0.298390
1094.250000	0.305562
1094.500000	0.310597
1094.750000	0.318379
1095.000000	0.322957
1095.250000	0.330282
1095.500000	0.335775
1095.750000	0.342336
1096.000000	0.348287
1096.250000	0.354391
1096.500000	0.361410
1096.750000	0.366903
1097.000000	0.374228
1097.250000	0.379416
1097.500000	0.386587
1097.750000	0.391470
1098.000000	0.398795
1098.250000	0.404440
1098.500000	0.411002
1098.750000	0.417258
1099.000000	0.423362
1099.250000	0.430533
1099.500000	0.434958
1099.750000	0.442588
1100.000000	0.447166
1100.250000	0.454948
1100.500000	0.459831
1100.750000	0.467002
1101.000000	0.472038
1101.250000	0.478752
1101.500000	0.485008
1101.750000	0.490654
1102.000000	0.497368
1102.250000	0.502251
1102.500000	0.509880
1102.750000	0.514305
1103.000000	0.521630
1103.250000	0.526207
1103.500000	0.533379
1103.750000	0.538109
1104.000000	0.544366
1104.250000	0.550011
1104.500000	0.555352
1104.750000	0.562066
1105.000000	0.566949
1105.250000	0.573968
1105.500000	0.578088
1105.750000	0.585718
1106.000000	0.589532
1106.250000	0.596857
1106.500000	0.601282
1106.750000	0.607996
1107.000000	0.613184
1107.250000	0.618830
1107.500000	0.624933
1107.750000	0.629358
1108.000000	0.635920
1108.250000	0.639735
1108.500000	0.646754
1108.750000	0.650263
1109.000000	0.657130
1109.250000	0.661097
1109.500000	0.667506
1109.750000	0.672694
1110.000000	0.678492
1110.250000	0.683986
1110.500000	0.688563
1110.750000	0.694667
1111.000000	0.698482
1111.250000	0.705043
1111.500000	0.709010
1111.750000	0.714961
1112.000000	0.718929
1112.250000	0.725032
1112.500000	0.729305
1112.750000	0.734035
1113.000000	0.739376
1113.250000	0.743801
1113.500000	0.749294
1113.750000	0.752956
1114.000000	0.759213
1114.250000	0.762570
1114.500000	0.768521
1114.750000	0.772030
1115.000000	0.777829
1115.250000	0.781796
1115.500000	0.786526
1115.750000	0.791562
1116.000000	0.794766
1116.250000	0.800565
1116.500000	0.803922
1116.750000	0.809720
1117.000000	0.812619
1117.250000	0.818570
1117.500000	0.821469
1117.750000	0.827115
1118.000000	0.830472
1118.250000	0.835050
1118.500000	0.839170
1118.750000	0.843137
1119.000000	0.847410
1119.250000	0.850919
1119.500000	0.856260
1119.750000	0.858854
1120.000000	0.863737
1120.250000	0.866178
1120.500000	0.871061
1120.750000	0.873960
1121.000000	0.878233
1121.250000	0.881895
1121.500000	0.884794
1121.750000	0.889525
1122.000000	0.891966
1122.250000	0.896391
1122.500000	0.899138
1122.750000	0.903410
1123.000000	0.906004
1123.250000	0.909972
1123.500000	0.912871
1123.750000	0.916228
1124.000000	0.919585
1124.250000	0.922484
1124.500000	0.925994
1124.750000	0.928130
1125.000000	0.932250
1125.250000	0.934234
1125.500000	0.938201
1125.750000	0.940032
1126.000000	0.943542
1126.250000	0.945373
1126.500000	0.948272
1126.750000	0.950561
1127.000000	0.953155
1127.250000	0.955749
1127.500000	0.958343
1127.750000	0.960937
1128.000000	0.962463
1128.250000	0.965515
1128.500000	0.966888
1128.750000	0.970550
1129.000000	0.971923
1129.250000	0.974517
1129.500000	0.976501
1129.750000	0.978332
1130.000000	0.980621
1130.250000	0.981537
1130.500000	0.984436
1130.750000	0.985046
1131.000000	0.987335
1131.250000	0.988098
1131.500000	0.991150
1131.750000	0.992065
1132.000000	0.993896
1132.250000	0.994812
1132.500000	0.996338
1132.750000	0.997711
1133.000000	0.998627
1133.250000	1.000305
1133.500000	1.000458
1133.750000	1.002899
1134.000000	1.003204
1134.250000	1.004578
1134.500000	1.004730
1134.750000	1.006409
1135.000000	1.006714
1135.250000	1.007782
1135.500000	1.008850
1135.750000	1.009155
1136.000000	1.010224
1136.250000	1.010376
1136.500000	1.011444
1136.750000	1.010834
1137.000000	1.012207
1137.250000	1.011597
1137.500000	1.012818
1137.750000	1.012360
1138.000000	1.013275
1138.250000	1.013123
1138.500000	1.013123
1138.750000	1.013581
1139.000000	1.013275
1139.250000	1.014191
1139.500000	1.013581
1139.750000	1.014801
1140.000000	1.013581
1140.250000	1.014191
1140.500000	1.013123
1140.750000	1.013733
1141.000000	1.012512
1141.250000	1.012512
1141.500000	1.011902
1141.750000	1.010986
1142.000000	1.010986
1142.250000	1.009613
1142.500000	1.010224
1142.750000	1.007782
1143.000000	1.008392
1143.250000	1.006256
1143.500000	1.006561
1143.750000	1.004883
1144.000000	1.004425
1144.250000	1.003204
1144.500000	1.001984
1144.750000	1.001068
1145.000000	0.999084
1145.250000	0.998322
1145.500000	0.996338
1145.750000	0.996185
1146.000000	0.993439
1146.250000	0.992981
1146.500000	0.990234
1146.750000	0.989624
1147.000000	0.987488
1147.250000	0.986114
1147.500000	0.984588
1147.750000	0.982757
1148.000000	0.981079
1148.250000	0.978332
1148.500000	0.977874
1148.750000	0.974670
1149.000000	0.974060
1149.250000	0.971008
1149.500000	0.969940
1149.750000	0.966888
1150.000000	0.965057
1150.250000	0.962463
1150.500000	0.959869
1150.750000	0.958190
1151.000000	0.954833
1151.250000	0.953613
1151.500000	0.949645
1151.750000	0.948425
1152.000000	0.944915
1152.250000	0.943084
1152.500000	0.939879
1152.750000	0.937133
1153.000000	0.934997
1153.250000	0.931945
1153.500000	0.929656
1153.750000	0.925841
1154.000000	0.924163
1154.250000	0.920195
1154.500000	0.917906
1154.750000	0.913787
1155.000000	0.911192
1155.250000	0.907835
1155.500000	0.904784
1155.750000	0.901884
1156.000000	0.898070
1156.250000	0.895323
1156.500000	0.891356
1156.750000	0.888914
1157.000000	0.884489
1157.250000	0.882353
1157.500000	0.877775
1157.750000	0.875181
1158.000000	0.870451
1158.250000	0.866941
1158.500000	0.863279
1158.750000	0.859007
1159.000000	0.855802
1159.250000	0.851682
1159.500000	0.848783
1159.750000	0.843595
1160.000000	0.840696
1160.250000	0.835660
1160.500000	0.832303
1160.750000	0.827573
1161.000000	0.824369
1161.250000	0.819944
1161.500000	0.815671
1161.750000	0.812161
1162.000000	0.806973
1162.250000	0.803311
1162.500000	0.798276
1162.750000	0.794766
1163.000000	0.789578
1163.250000	0.785763
1163.500000	0.780423
1163.750000	0.776455
1164.000000	0.771878
1164.250000	0.767300
1164.500000	0.763027
1164.750000	0.757534
1165.000000	0.753719
1165.250000	0.748074
1165.500000	0.744869
1165.750000	0.739071
1166.000000	0.735714
1166.250000	0.729915
1166.500000	0.725643
1166.750000	0.720607
1167.000000	0.716030
1167.250000	0.711910
1167.500000	0.705959
1167.750000	0.702144
1168.000000	0.695888
1168.250000	0.692836
1168.500000	0.686732
1168.750000	0.682918
1169.000000	0.677119
1169.250000	0.672694
1169.500000	0.667353
1169.750000	0.662623
1170.000000	0.658045
1170.250000	0.652399
1170.500000	0.648127
1170.750000	0.642023
1171.000000	0.637903
1171.250000	0.631342
1171.500000	0.627985
1171.750000	0.621271
1172.000000	0.617304
1172.250000	0.611048
1172.500000	0.606317
1172.750000	0.601282
1173.000000	0.595636
1173.250000	0.591058
1173.500000	0.584955
1173.750000	0.580682
1174.000000	0.573968
1174.250000	0.570306
1174.500000	0.563897
1174.750000	0.559625
1175.000000	0.553368
1175.250000	0.548486
1175.500000	0.542992
1175.750000	0.537804
1176.000000	0.533379
1176.250000	0.526665
1176.500000	0.522698
1176.750000	0.515526
1177.000000	0.511711
1177.250000	0.504997
1177.500000	0.501030
1177.750000	0.494469
1178.000000	0.489738
1178.250000	0.483787
1178.500000	0.477989
1178.750000	0.472801
1179.000000	0.466239
1179.250000	0.461662
1179.500000	0.454490
1179.750000	0.450675
1180.000000	0.443961
1180.250000	0.439689
1180.500000	0.432822
1180.750000	0.428244
1181.000000	0.421988
1181.250000	0.416800
1181.500000	0.411307
1181.750000	0.405356
1182.000000	0.400778
1182.250000	0.393912
1182.500000	0.389792
1182.750000	0.382467
1183.000000	0.378195
1183.250000	0.371633
1183.500000	0.367361
1183.750000	0.360800
1184.000000	0.355764
1184.250000	0.350118
1184.500000	0.344015
1184.750000	0.338979
1185.000000	0.332418
1185.250000	0.328145
1185.500000	0.321431
1185.750000	0.317617
1186.000000	0.311360
1186.250000	0.306783
1186.500000	0.300832
1186.750000	0.295949
1187.000000	0.290303
1187.250000	0.284199
1187.500000	0.279316
1187.750000	0.272908
1188.000000	0.269093
1188.250000	0.262226
1188.500000	0.258717
1188.750000	0.251698
1189.000000	0.247730
1189.250000	0.241627
1189.500000	0.237049
1189.750000	0.231403
1190.000000	0.226215
1190.250000	0.221332
1190.500000	0.214923
1190.750000	0.211109
1191.000000	0.204395
1191.250000	0.200885
1191.500000	0.194324
1191.750000	0.190661
1192.000000	0.184558
1192.250000	0.180133
1192.500000	0.174487
1192.750000	0.169604
1193.000000	0.164874
1193.250000	0.159075
1193.500000	0.155413
1193.750000	0.149004
1194.000000	0.145647
1194.250000	0.139391
1194.500000	0.135576
1194.750000	0.129778
1195.000000	0.125658
1195.250000	0.120470
1195.500000	0.115587
1195.750000	0.111009
1196.000000	0.105364
1196.250000	0.101549
1196.500000	0.096056
1196.750000	0.092546
1197.000000	0.086442
1197.250000	0.082933
1197.500000	0.077287
1197.750000	0.074083
1198.000000	0.068742
1198.250000	0.064622
1198.500000	0.060197
1198.750000	0.055161
1199.000000	0.051499
1199.250000	0.045853
1199.500000	0.042954
1199.750000	0.037003
1200.000000	0.033799
1200.250000	0.028153
1200.500000	0.024643
1200.750000	0.019913
1201.000000	0.015335
1201.250000	0.011673
1201.500000	0.006790
1201.750000	0.003586
1202.000000	-0.001755
1202.250000	-0.004654
1202.500000	-0.009842
1202.750000	-0.012741
1203.000000	-0.017777
1203.250000	-0.020981
1203.500000	-0.025254
1203.750000	-0.029068
1204.000000	-0.032883
1204.250000	-0.037613
1204.500000	-0.040360
1204.750000	-0.045548
1205.000000	-0.047837
1205.250000	-0.052873
1205.500000	-0.055619
1205.750000	-0.060044
1206.000000	-0.062791
1206.250000	-0.066911
1206.500000	-0.070420
1206.750000	-0.073777
1207.000000	-0.077745
1207.250000	-0.080491
1207.500000	-0.084916
1207.750000	-0.087358
1208.000000	-0.091630
1208.250000	-0.093767
1208.500000	-0.097887
1208.750000	-0.100481
1209.000000	-0.104143
1209.250000	-0.107042
1209.500000	-0.109789
1209.750000	-0.112993
1210.000000	-0.114977
1210.250000	-0.118791
1210.500000	-0.120470
1210.750000	-0.124590
1211.000000	-0.126421
1211.250000	-0.129931
1211.500000	-0.132219
1211.750000	-0.135424
1212.000000	-0.138170
1212.250000	-0.140307
1212.500000	-0.143359
1212.750000	-0.144884
1213.000000	-0.148089
1213.250000	-0.149462
1213.500000	-0.152819
1213.750000	-0.154040
1214.000000	-0.157702
1214.250000	-0.158770
1214.500000	-0.161669
1214.750000	-0.163653
1215.000000	-0.165789
1215.250000	-0.168078
1215.500000	-0.169604
1215.750000	-0.172198
1216.000000	-0.173266
1216.250000	-0.176318
1216.500000	-0.177081
1216.750000	-0.179980
1217.000000	-0.180591
1217.250000	-0.183642
1217.500000	-0.184405
1217.750000	-0.186389
1218.000000	-0.188067
1218.250000	-0.189593
1218.500000	-0.191577
1218.750000	-0.192340
1219.000000	-0.194934
1219.250000	-0.195392
1219.500000	-0.197833
1219.750000	-0.198444
1220.000000	-0.200427
1220.250000	-0.201343
1220.500000	-0.202869
1220.750000	-0.203632
1221.000000	-0.204395
1221.250000	-0.206073
1221.500000	-0.206378
1221.750000	-0.208362
1222.000000	-0.208362
1222.250000	-0.210040
1222.500000	-0.210040
1222.750000	-0.211414
1223.000000	-0.211566
1223.250000	-0.212482
1223.500000	-0.213397
1223.750000	-0.214008
1224.000000	-0.215076
1224.250000	-0.215076
1224.500000	-0.216449
1224.750000	-0.215991
1225.000000	-0.217517
1225.250000	-0.216754
1225.500000	-0.217823
1225.750000	-0.217517
1226.000000	-0.218128
1226.250000	-0.218128
1226.500000	-0.218128
1226.750000	-0.218738
1227.000000	-0.217365
1227.250000	-0.219043
1227.500000	-0.217670
1227.750000	-0.218891
1228.000000	-0.217517
1228.250000	-0.218433
1228.500000	-0.218128
1228.750000	-0.217670
1229.000000	-0.217517
1229.250000	-0.215991
1229.500000	-0.216602
1229.750000	-0.214466
1230.000000	-0.215534
1230.250000	-0.213397
1230.500000	-0.214160
1230.750000	-0.212024
1231.000000	-0.212177
1231.250000	-0.211261
1231.500000	-0.210040
1231.750000	-0.209735
1232.000000	-0.207904
1232.250000	-0.208515
1232.500000	-0.205921
1232.750000	-0.206836
1233.000000	-0.203479
1233.250000	-0.204395
1233.500000	-0.201648
1233.750000	-0.201343
1234.000000	-0.199207
1234.250000	-0.197986
1234.500000	-0.197070
1234.750000	-0.194781
1235.000000	-0.194934
1235.250000	-0.191577
1235.500000	-0.192035
1235.750000	-0.188678
1236.000000	-0.188678
1236.250000	-0.185473
1236.500000	-0.184863
1236.750000	-0.182574
1237.000000	-0.180743
1237.250000	-0.179522
1237.500000	-0.176471
1237.750000	-0.176623
1238.000000	-0.172351
1238.250000	-0.172808
1238.500000	-0.168536
1238.750000	-0.167773
1239.000000	-0.164263
1239.250000	-0.163195
1239.500000	-0.160601
1239.750000	-0.158160
1240.000000	-0.156786
1240.250000	-0.153124
1240.500000	-0.152972
1240.750000	-0.148394
1241.000000	-0.147936
1241.250000	-0.143053
1241.500000	-0.142596
1241.750000	-0.138476
1242.000000	-0.137407
1242.250000	-0.134661
1242.500000	-0.132067
1242.750000	-0.130388
1243.000000	-0.126268
1243.250000	-0.125658
1243.500000	-0.120470
1243.750000	-0.120165
1244.000000	-0.114672
1244.250000	-0.114061
1244.500000	-0.109178
1244.750000	-0.108110
1245.000000	-0.104906
1245.250000	-0.101549
1245.500000	-0.099565
1245.750000	-0.095293
1246.000000	-0.094377
1246.250000	-0.088579
1246.500000	-0.088579
1246.750000	-0.082017
1247.000000	-0.081865
1247.250000	-0.076371
1247.500000	-0.074846
1247.750000	-0.070420
1248.000000	-0.066911
1248.250000	-0.064164
1248.500000	-0.059434
1248.750000	-0.058366
1249.000000	-0.052110
1249.250000	-0.051499
1249.500000	-0.045090
1249.750000	-0.044327
1250.000000	-0.038376
1250.250000	-0.036545
1250.500000	-0.031815
1250.750000	-0.028305
1251.000000	-0.025101
1251.250000	-0.019913
1251.500000	-0.018235
1251.750000	-0.011673
1252.000000	-0.010758
1252.250000	-0.004196
1252.500000	-0.002670
1252.750000	0.003738
1253.000000	0.006180
1253.250000	0.010605
1253.500000	0.014267
1253.750000	0.017777
1254.000000	0.023423
1254.250000	0.025559
1254.500000	0.031968
1254.750000	0.033494
1255.000000	0.040818
1255.250000	0.041581
1255.500000	0.048600
1255.750000	0.051041
1256.000000	0.056687
1256.250000	0.060655
1256.500000	0.064469
1256.750000	0.069963
1257.000000	0.072709
1257.250000	0.079271
1257.500000	0.080949
1257.750000	0.088273
1258.000000	0.090105
1258.250000	0.097124
1258.500000	0.099565
1258.750000	0.105364
1259.000000	0.109483
1259.250000	0.113909
1259.500000	0.119249
1259.750000	0.122148
1260.000000	0.128710
1260.250000	0.130694
1260.500000	0.137865
1260.750000	0.140002
1261.000000	0.147631
1261.250000	0.149462
1261.500000	0.156024
1261.750000	0.159533
1262.000000	0.164721
1262.250000	0.169451
1262.500000	0.172961
1262.750000	0.179370
1263.000000	0.181964
1263.250000	0.188983
1263.500000	0.190814
1263.750000	0.198138
1264.000000	0.200885
1264.250000	0.207599
1264.500000	0.210956
1264.750000	0.216602
1265.000000	0.221332
1265.250000	0.225147
1265.500000	0.231250
1265.750000	0.234302
1266.000000	0.241321
1266.250000	0.243610
1266.500000	0.250477
1266.750000	0.252918
1267.000000	0.259632
1267.250000	0.262989
1267.500000	0.268482
1267.750000	0.272755
1268.000000	0.277790
1268.250000	0.283589
1268.500000	0.287098
1268.750000	0.294118
1269.000000	0.296407
1269.250000	0.303731
1269.500000	0.306020
1269.750000	0.312886
1270.000000	0.316396
1270.250000	0.322652
1270.500000	0.326772
1270.750000	0.331655
1271.000000	0.337148
1271.250000	0.340810
1271.500000	0.347372
1271.750000	0.350118
1272.000000	0.357290
1272.250000	0.360189
1272.500000	0.367208
1272.750000	0.370413
1273.000000	0.376364
1273.250000	0.380636
1273.500000	0.385519
1273.750000	0.391012
1274.000000	0.394675
1274.250000	0.401541
1274.500000	0.404135
1274.750000	0.411307
1275.000000	0.414054
1275.250000	0.420920
1275.500000	0.424430
1275.750000	0.430686
1276.000000	0.434653
1276.250000	0.439689
1276.500000	0.445335
1276.750000	0.448844
1277.000000	0.455711
1277.250000	0.458305
1277.500000	0.465171
1277.750000	0.467765
1278.000000	0.474937
1278.250000	0.477531
1278.500000	0.484092
1278.750000	0.487602
1279.000000	0.492485
1279.250000	0.497520
1279.500000	0.501335
1279.750000	0.507744
1280.000000	0.510491
1280.250000	0.517205
1280.500000	0.519646
1280.750000	0.526513
1281.000000	0.529107
1281.250000	0.535210
1281.500000	0.538872
1281.750000	0.543908
1282.000000	0.548486
1282.250000	0.552148
1282.500000	0.558099
1282.750000	0.560693
1283.000000	0.567254
1283.250000	0.569543
1283.500000	0.575799
1283.750000	0.578088
1284.000000	0.584192
1284.250000	0.587243
1284.500000	0.592279
1284.750000	0.596551
1285.000000	0.600214
1285.250000	0.605402
1285.500000	0.608301
1285.750000	0.614252
1286.000000	0.616693
1286.250000	0.623255
1286.500000	0.624933
1286.750000	0.630884
1287.000000	0.633478
1287.250000	0.638361
1287.500000	0.641413
1287.750000	0.645380
1288.000000	0.650111
1288.250000	0.653010
1288.500000	0.658503
1288.750000	0.660334
1289.000000	0.666285
1289.250000	0.668116
1289.500000	0.673762
1289.750000	0.676051
1290.000000	0.680934
1290.250000	0.684138
1290.500000	0.687800
1290.750000	0.691463
1291.000000	0.694362
1291.250000	0.699245
1291.500000	0.700771
1291.750000	0.706111
1292.000000	0.707942
1292.250000	0.712978
1292.500000	0.714809
1292.750000	0.719234
1293.000000	0.721981
1293.250000	0.725490
1293.500000	0.729152
1293.750000	0.731746
1294.000000	0.735866
1294.250000	0.738155
1294.500000	0.742733
1294.750000	0.744411
1295.000000	0.749142
1295.250000	0.751278
1295.500000	0.754940
1295.750000	0.757839
1296.000000	0.761501
1296.250000	0.764248
1296.500000	0.766842
1296.750000	0.770199
1297.000000	0.772793
1297.250000	0.775845
1297.500000	0.777829
1297.750000	0.781338
1298.000000	0.783475
1298.250000	0.786679
1298.500000	0.788663
1298.750000	0.791562
1299.000000	0.794308
1299.250000	0.797360
1299.500000	0.799649
1299.750000	0.802243
1300.000000	0.804227
1300.250000	0.807279
1300.500000	0.809567
1300.750000	0.812467
1301.000000	0.814603
1301.250000	0.816892
1301.500000	0.819333
1301.750000	0.821775
1302.000000	0.823911
1302.250000	0.825437
1302.500000	0.827878
1302.750000	0.829709
1303.000000	0.831846
1303.250000	0.833524
1303.500000	0.836118
1303.750000	0.837491
1304.000000	0.839628
1304.250000	0.841306
1304.500000	0.842985
1304.750000	0.844663
1305.000000	0.846189
1305.250000	0.847410
1305.500000	0.848783
1305.750000	0.850614
1306.000000	0.851987
1306.250000	0.853819
1306.500000	0.854887
1306.750000	0.856413
1307.000000	0.857633
1307.250000	0.859159
1307.500000	0.860380
1307.750000	0.862211
1308.000000	0.863584
1308.250000	0.864652
1308.500000	0.866178
1308.750000	0.866636
1309.000000	0.868162
1309.250000	0.868925
1309.500000	0.869841
1309.750000	0.870756
1310.000000	0.871519
1310.250000	0.872282
1310.500000	0.872892
1310.750000	0.874113
1311.000000	0.874571
1311.250000	0.875944
1311.500000	0.876249
1311.750000	0.877623
1312.000000	0.877470
1312.250000	0.878233
1312.500000	0.878538
1312.750000	0.878386
1313.000000	0.878996
1313.250000	0.878996
1313.500000	0.879606
1313.750000	0.879454
1314.000000	0.880217
1314.250000	0.880064
1314.500000	0.880522
1314.750000	0.880369
1315.000000	0.880674
1315.250000	0.880217
1315.500000	0.880217
1315.750000	0.879759
1316.000000	0.879301
1316.250000	0.879911
1316.500000	0.879149
1316.750000	0.879301
1317.000000	0.878538
1317.250000	0.878538
1317.500000	0.877623
1317.750000	0.877165
1318.000000	0.876554
1318.250000	0.875944
1318.500000	0.875792
1318.750000	0.874266
1319.000000	0.874266
1319.250000	0.872892
1319.500000	0.873045
1319.750000	0.872129
1320.000000	0.871519
1320.250000	0.870298
1320.500000	0.869383
1320.750000	0.868467
1321.000000	0.867094
1321.250000	0.865873
1321.500000	0.864195
1321.750000	0.863584
1322.000000	0.861601
1322.250000	0.861143
1322.500000	0.859464
1322.750000	0.858549
1323.000000	0.856565
1323.250000	0.855192
1323.500000	0.853666
1323.750000	0.852445
1324.000000	0.850614
1324.250000	0.849241
1324.500000	0.847715
1324.750000	0.845884
1325.000000	0.844663
1325.250000	0.842222
1325.500000	0.841306
1325.750000	0.839017
1326.000000	0.837949
1326.250000	0.835660
1326.500000	0.834592
1326.750000	0.832761
1327.000000	0.830625
1327.250000	0.828489
1327.500000	0.826200
1327.750000	0.824216
1328.000000	0.821622
1328.250000	0.820554
1328.500000	0.817807
1328.750000	0.816281
1329.000000	0.813230
1329.250000	0.811704
1329.500000	0.809262
1329.750000	0.806973
1330.000000	0.804685
1330.250000	0.802243
1330.500000	0.800259
1330.750000	0.796902
1331.000000	0.794766
1331.250000	0.792172
1331.500000	0.790188
1331.750000	0.786984
1332.000000	0.784848
1332.250000	0.782406
1332.500000	0.779660
1332.750000	0.776761
1333.000000	0.773556
1333.250000	0.771420
1333.500000	0.768215
1333.750000	0.765927
1334.000000	0.762722
1334.250000	0.760281
1334.500000	0.756924
1334.750000	0.754177
1335.000000	0.750973
1335.250000	0.748074
1335.500000	0.745174
1335.750000	0.742123
1336.000000	0.739223
1336.250000	0.735714
1336.500000	0.732662
1336.750000	0.729000
1337.000000	0.726711
1337.250000	0.723201
1337.500000	0.720607
1337.750000	0.717098
1338.000000	0.713741
1338.250000	0.710689
1338.500000	0.706874
1338.750000	0.703975
1339.000000	0.700313
1339.250000	0.697261
1339.500000	0.693141
1339.750000	0.690394
1340.000000	0.686275
1340.250000	0.683375
1340.500000	0.679103
1340.750000	0.675746
1341.000000	0.672084
1341.250000	0.668421
1341.500000	0.665217
1341.750000	0.660639
1342.000000	0.657435
1342.250000	0.652857
1342.500000	0.650111
1342.750000	0.645380
1343.000000	0.642176
1343.250000	0.637751
1343.500000	0.634699
1343.750000	0.631037
1344.000000	0.627070
1344.250000	0.623407
1344.500000	0.618830
1344.750000	0.615473
1345.000000	0.610285
1345.250000	0.607233
1345.500000	0.602197
1345.750000	0.598688
1346.000000	0.593957
1346.250000	0.590448
1346.500000	0.586480
1346.750000	0.582361
1347.000000	0.578546
1347.250000	0.574121
1347.500000	0.571069
1347.750000	0.565881
1348.000000	0.562219
1348.250000	0.557183
1348.500000	0.553521
1348.750000	0.548943
1349.000000	0.544976
1349.250000	0.540398
1349.500000	0.536278
1349.750000	0.532464
1350.000000	0.527886
1350.250000	0.524376
1350.500000	0.519341
1350.750000	0.515831
1351.000000	0.510643
1351.250000	0.507134
1351.500000	0.502403
1351.750000	0.498589
1352.000000	0.494469
1352.250000	0.490196
1352.500000	0.485924
1352.750000	0.481651
1353.000000	0.477989
1353.250000	0.473564
1353.500000	0.470054
1353.750000	0.465019
1354.000000	0.461814
1354.250000	0.456779
1354.500000	0.452811
1354.750000	0.448081
1355.000000	0.444114
1355.250000	0.439994
1355.500000	0.435264
1355.750000	0.431907
1356.000000	0.426413
1356.250000	0.423056
1356.500000	0.417563
1356.750000	0.414054
1357.000000	0.409171
1357.250000	0.405509
1357.500000	0.400473
1357.750000	0.396353
1358.000000	0.392233
1358.250000	0.387503
1358.500000	0.383536
1358.750000	0.378347
1359.000000	0.375296
1359.250000	0.369802
1359.500000	0.366140
1359.750000	0.360952
1360.000000	0.356832
1360.250000	0.352560
1360.500000	0.348135
1360.750000	0.344015
1361.000000	0.338674
1361.250000	0.335470
1361.500000	0.329976
1361.750000	0.326314
1362.000000	0.320821
1362.250000	0.317311
1362.500000	0.312123
1362.750000	0.308309
1363.000000	0.304036
1363.250000	0.299611
1363.500000	0.296254
1363.750000	0.291066
1364.000000	0.287404
1364.250000	0.281910
1364.500000	0.279164
1364.750000	0.273671
1365.000000	0.270771
1365.250000	0.265888
1365.500000	0.262074
1365.750000	0.257801
1366.000000	0.253986
1366.250000	0.249866
1366.500000	0.245289
1366.750000	0.242084
1367.000000	0.236896
1367.250000	0.234302
1367.500000	0.229114
1367.750000	0.226368
1368.000000	0.221027
1368.250000	0.217365
1368.500000	0.212940
1368.750000	0.209125
1369.000000	0.205310
1369.250000	0.200885
1369.500000	0.197833
1369.750000	0.192493
1370.000000	0.190356
1370.250000	0.184863
1370.500000	0.182116
1370.750000	0.177234
1371.000000	0.174182
1371.250000	0.169604
1371.500000	0.166247
1371.750000	0.162585
1372.000000	0.158618
1372.250000	0.155566
1372.500000	0.150988
1372.750000	0.148547
1373.000000	0.143664
1373.250000	0.141222
1373.500000	0.136339
1373.750000	0.133745
1374.000000	0.129320
1374.250000	0.126116
1374.500000	0.122606
1374.750000	0.118944
1375.000000	0.115892
1375.250000	0.111315
1375.500000	0.109178
1375.750000	0.104448
1376.000000	0.102312
1376.250000	0.098039
1376.500000	0.095598
1376.750000	0.091478
1377.000000	0.088579
1377.250000	0.085527
1377.500000	0.081559
1377.750000	0.078965
1378.000000	0.074693
1378.250000	0.072557
1378.500000	0.068284
1378.750000	0.065843
1379.000000	0.061723
1379.250000	0.059434
1379.500000	0.055772
1379.750000	0.053178
1380.000000	0.050431
1380.250000	0.047074
1380.500000	0.044938
1380.750000	0.040818
1381.000000	0.039139
1381.250000	0.034409
1381.500000	0.033036
1381.750000	0.028916
1382.000000	0.027085
1382.250000	0.023423
1382.500000	0.021134
1382.750000	0.018235
1383.000000	0.015335
1383.250000	0.013046
1383.500000	0.009537
1383.750000	0.008316
1384.000000	0.004044
1384.250000	0.002976
1384.500000	-0.001144
1384.750000	-0.002213
1385.000000	-0.005417
1385.250000	-0.007553
1385.500000	-0.009689
1385.750000	-0.012741
1386.000000	-0.014115
1386.250000	-0.017624
1386.500000	-0.018692
1386.750000	-0.022354
1387.000000	-0.022965
1387.250000	-0.026780
1387.500000	-0.027848
1387.750000	-0.031052
1388.000000	-0.032731
1388.250000	-0.034409
1388.500000	-0.037308
1388.750000	-0.038682
1389.000000	-0.041733
1389.250000	-0.042496
1389.500000	-0.045548
1389.750000	-0.046006
1390.000000	-0.049363
1390.250000	-0.049973
1390.500000	-0.052415
1390.750000	-0.053635
1391.000000	-0.055467
1391.250000	-0.057603
1391.500000	-0.058518
1391.750000	-0.061265
1392.000000	-0.061112
1392.250000	-0.063706
1392.500000	-0.063859
1392.750000	-0.066148
1393.000000	-0.066453
1393.250000	-0.068589
1393.500000	-0.069505
1393.750000	-0.070878
1394.000000	-0.072557
1394.250000	-0.073320
1394.500000	-0.075456
1394.750000	-0.075456
1395.000000	-0.077440
1395.250000	-0.077134
1395.500000	-0.079576
1395.750000	-0.079118
1396.000000	-0.081102
1396.250000	-0.081559
1396.500000	-0.082628
1396.750000	-0.083543
1397.000000	-0.083848
1397.250000	-0.085527
1397.500000	-0.084916
1397.750000	-0.086900
1398.000000	-0.086442
1398.250000	-0.088579
1398.500000	-0.087510
1398.750000	-0.089494
1399.000000	-0.089189
1399.250000	-0.089952
1399.500000	-0.090410
1399.750000	-0.090257
1400.000000	-0.091630
1400.250000	-0.090410
1400.500000	-0.091936
1400.750000	-0.091020
1401.000000	-0.093004
1401.250000	-0.091783
1401.500000	-0.093156
1401.750000	-0.092241
1402.000000	-0.092851
1402.250000	-0.093004
1402.500000	-0.092699
1402.750000	-0.093767
1403.000000	-0.092699
1403.250000	-0.093767
1403.500000	-0.092241
1403.750000	-0.093614
1404.000000	-0.091783
1404.250000	-0.092546
1404.500000	-0.091173
1404.750000	-0.091173
1405.000000	-0.091020
1405.250000	-0.090410
1405.500000	-0.090410
1405.750000	-0.089494
1406.000000	-0.090105
1406.250000	-0.088579
1406.500000	-0.089036
1406.750000	-0.087510
1407.000000	-0.087816
1407.250000	-0.086900
1407.500000	-0.086442
1407.750000	-0.085222
1408.000000	-0.084306
1408.250000	-0.084154
1408.500000	-0.082933
1408.750000	-0.083085
1409.000000	-0.081254
1409.250000	-0.081559
1409.500000	-0.079576
1409.750000	-0.079728
1410.000000	-0.077745
1410.250000	-0.077440
1410.500000	-0.075761
1410.750000	-0.074846
1411.000000	-0.073930
1411.250000	-0.072099
1411.500000	-0.071641
1411.750000	-0.069505
1412.000000	-0.069352
1412.250000	-0.067216
1412.500000	-0.066453
1412.750000	-0.064622
1413.000000	-0.063859
1413.250000	-0.062638
1413.500000	-0.061570
1413.750000	-0.060502
1414.000000	-0.058213
1414.250000	-0.057298
1414.500000	-0.054856
1414.750000	-0.054398
1415.000000	-0.051347
1415.250000	-0.050736
1415.500000	-0.048295
1415.750000	-0.047227
1416.000000	-0.045396
1416.250000	-0.043565
1416.500000	-0.042039
1416.750000	-0.039445
1417.000000	-0.038071
1417.250000	-0.035630
1417.500000	-0.034104
1417.750000	-0.031357
1418.000000	-0.029984
1418.250000	-0.027390
1418.500000	-0.025711
1418.750000	-0.023575
1419.000000	-0.021286
1419.250000	-0.018997
1419.500000	-0.016709
1419.750000	-0.014878
1420.000000	-0.011673
1420.250000	-0.010147
1420.500000	-0.007095
1420.750000	-0.004959
1421.000000	-0.001755
1421.250000	0.000076
1421.500000	0.002365
1421.750000	0.004654
1422.000000	0.007095
1422.250000	0.009842
1422.500000	0.012131
1422.750000	0.014725
1423.000000	0.016861
1423.250000	0.020066
1423.500000	0.022660
1423.750000	0.025711
1424.000000	0.028305
1424.250000	0.031510
1424.500000	0.033951
1424.750000	0.037156
1425.000000	0.039750
1425.250000	0.042344
1425.500000	0.045701
1425.750000	0.048295
1426.000000	0.051499
1426.250000	0.054093
1426.500000	0.057603
1426.750000	0.060044
1427.000000	0.063706
1427.250000	0.066148
1427.500000	0.069352
1427.750000	0.072251
1428.000000	0.075151
1428.250000	0.078355
1428.500000	0.081559
1428.750000	0.084916
1429.000000	0.087510
1429.250000	0.091325
1429.500000	0.093919
1429.750000	0.097429
1430.000000	0.100786
1430.250000	0.104295
1430.500000	0.107500
1430.750000	0.110399
1431.000000	0.114519
1431.250000	0.117113
1431.500000	0.121386
1431.750000	0.123980
1432.000000	0.127947
1432.250000	0.130388
1432.500000	0.134661
1432.750000	0.137713
1433.000000	0.141222
1433.250000	0.144427
1433.500000	0.147936
1433.750000	0.151904
1434.000000	0.154803
1434.250000	0.159075
1434.500000	0.161517
1434.750000	0.165789
1435.000000	0.168231
1435.250000	0.172351
1435.500000	0.176013
1435.750000	0.179522
1436.000000	0.183337
1436.250000	0.186694
1436.500000	0.190814
1436.750000	0.193713
1437.000000	0.198138
1437.250000	0.201038
1437.500000	0.205310
1437.750000	0.208362
1438.000000	0.212024
1438.250000	0.215534
1438.500000	0.219654
1438.750000	0.223621
1439.000000	0.226978
1439.250000	0.230335
1439.500000	0.233692
1439.750000	0.237659
1440.000000	0.241169
1440.250000	0.244831
1440.500000	0.248493
1440.750000	0.252766
1441.000000	0.256123
1441.250000	0.260243
1441.500000	0.263752
1441.750000	0.267720
1442.000000	0.271534
1442.250000	0.274891
1442.500000	0.278859
1442.750000	0.282216
1443.000000	0.286793
1443.250000	0.289998
1443.500000	0.294270
1443.750000	0.297322
1444.000000	0.301747
1444.250000	0.304952
1444.500000	0.309377
1444.750000	0.313039
1445.000000	0.316701
1445.250000	0.321431
1445.500000	0.323873
1445.750000	0.328603
1446.000000	0.331502
1446.250000	0.336385
1446.500000	0.339284
1446.750000	0.344015
1447.000000	0.347066
1447.250000	0.351186
1447.500000	0.354849
1447.750000	0.358511
1448.000000	0.362936
1448.250000	0.366445
1448.500000	0.371176
1448.750000	0.374075
1449.000000	0.378653
1449.250000	0.381399
1449.500000	0.386435
1449.750000	0.389639
1450.000000	0.394217
1450.250000	0.397879
1450.500000	0.401083
1450.750000	0.405661
1451.000000	0.408560
1451.250000	0.413748
1451.500000	0.416495
1451.750000	0.421378
1452.000000	0.424430
1452.250000	0.428702
1452.500000	0.432059
1452.750000	0.436484
1453.000000	0.439689
1453.250000	0.443198
1453.500000	0.447623
1453.750000	0.450523
1454.000000	0.455100
1454.250000	0.458000
1454.500000	0.462577
1454.750000	0.465171
1455.000000	0.469749
1455.250000	0.472496
1455.500000	0.476768
1455.750000	0.480278
1456.000000	0.483787
1456.250000	0.487449
1456.500000	0.490806
1456.750000	0.495232
1457.000000	0.497978
1457.250000	0.502708
1457.500000	0.504845
1457.750000	0.509270
1458.000000	0.512322
1458.250000	0.516442
1458.500000	0.519951
1458.750000	0.523613
1459.000000	0.527276
1459.250000	0.530175
1459.500000	0.534447
1459.750000	0.537041
1460.000000	0.541161
1460.250000	0.543603
1460.500000	0.547723
1460.750000	0.550469
1461.000000	0.554284
1461.250000	0.557488
1461.500000	0.560998
1461.750000	0.564813
1462.000000	0.567407
1462.250000	0.571374
1462.500000	0.573358
1462.750000	0.577630
1463.000000	0.579614
1463.250000	0.583886
1463.500000	0.586023
1463.750000	0.589990
1464.000000	0.592432
1464.250000	0.595636
1464.500000	0.598840
1464.750000	0.601740
1465.000000	0.605097
1465.250000	0.607233
1465.500000	0.611200
1465.750000	0.613184
1466.000000	0.617456
1466.250000	0.619135
1466.500000	0.622644
1466.750000	0.625086
1467.000000	0.627985
1467.250000	0.630732
1467.500000	0.633326
1467.750000	0.636378
1468.000000	0.638666
1468.250000	0.642023
1468.500000	0.643549
1468.750000	0.647211
1469.000000	0.648890
1469.250000	0.652247
1469.500000	0.654078
1469.750000	0.656825
1470.000000	0.659419
1470.250000	0.661707
1470.500000	0.664759
1470.750000	0.666743
1471.000000	0.669642
1471.250000	0.671626
1471.500000	0.674372
1471.750000	0.675898
1472.000000	0.678950
1472.250000	0.680629
1472.500000	0.683223
1472.750000	0.685512
1473.000000	0.688258
1473.250000	0.690547
1473.500000	0.692378
1473.750000	0.694972
1474.000000	0.696803
1474.250000	0.699702
1474.500000	0.700771
1474.750000	0.703822
1475.000000	0.705043
1475.250000	0.707485
1475.500000	0.709621
1475.750000	0.711147
1476.000000	0.712978
1476.250000	0.714961
1476.500000	0.717556
1476.750000	0.718776
1477.000000	0.721370
1477.250000	0.722286
1477.500000	0.724727
1477.750000	0.725490
1478.000000	0.727474
1478.250000	0.729000
1478.500000	0.730983
1478.750000	0.732662
1479.000000	0.734340
1479.250000	0.736324
1479.500000	0.736934
1479.750000	0.739376
1480.000000	0.739986
1480.250000	0.741970
1480.500000	0.742580
1480.750000	0.744564
1481.000000	0.745327
1481.250000	0.747005
1481.500000	0.748379
1481.750000	0.749447
1482.000000	0.750973
1482.250000	0.751583
1482.500000	0.753109
1482.750000	0.753719
1483.000000	0.755550
1483.250000	0.755550
1483.500000	0.756924
1483.750000	0.757229
1484.000000	0.758450
1484.250000	0.759365
1484.500000	0.760433
1484.750000	0.761807
1485.000000	0.762112
1485.250000	0.763333
1485.500000	0.763638
1485.750000	0.764553
1486.000000	0.764706
1486.250000	0.765774
1486.500000	0.766232
1486.750000	0.767147
1487.000000	0.767300
1487.250000	0.767605
1487.500000	0.768368
1487.750000	0.768063
1488.000000	0.768978
1488.250000	0.768826
1488.500000	0.769589
1488.750000	0.769284
1489.000000	0.769894
1489.250000	0.770352
1489.500000	0.770504
1489.750000	0.770352
1490.000000	0.770199
1490.250000	0.770657
1490.500000	0.769894
1490.750000	0.770504
1491.000000	0.769894
1491.250000	0.770504
1491.500000	0.769284
1491.750000	0.769589
1492.000000	0.768978
1492.250000	0.768978
1492.500000	0.768521
1492.750000	0.768063
1493.000000	0.768063
1493.250000	0.767147
1493.500000	0.767452
1493.750000	0.766690
1494.000000	0.766842
1494.250000	0.765469
1494.500000	0.765469
1494.750000	0.764706
1495.000000	0.764401
1495.250000	0.764096
1495.500000	0.763485
1495.750000	0.763027
1496.000000	0.761959
1496.250000	0.761654
1496.500000	0.760586
1496.750000	0.760281
1497.000000	0.759060
1497.250000	0.758602
1497.500000	0.757229
1497.750000	0.756771
1498.000000	0.755703
1498.250000	0.755093
1498.500000	0.754025
1498.750000	0.752651
1499.000000	0.752346
1499.250000	0.750668
1499.500000	0.750362
1499.750000	0.748531
1500.000000	0.748074
1500.250000	0.746395
1500.500000	0.745785
1500.750000	0.743954
1501.000000	0.743038
1501.250000	0.741665
1501.500000	0.740139
1501.750000	0.738613
1502.000000	0.737392
1502.250000	0.736171
1502.500000	0.734188
1502.750000	0.733425
1503.000000	0.731594
1503.250000	0.730220
1503.500000	0.728542
1503.750000	0.727169
1504.000000	0.725643
1504.250000	0.723964
1504.500000	0.722591
1504.750000	0.720607
1505.000000	0.719539
1505.250000	0.717250
1505.500000	0.715724
1505.750000	0.714046
1506.000000	0.711757
1506.250000	0.709926
1506.500000	0.707942
1506.750000	0.706264
1507.000000	0.703822
1507.250000	0.702144
1507.500000	0.700160
1507.750000	0.698329
1508.000000	0.696193
1508.250000	0.694362
1508.500000	0.692073
1508.750000	0.690242
1509.000000	0.688411
1509.250000	0.685664
1509.500000	0.684138
1509.750000	0.681086
1510.000000	0.679408
1510.250000	0.676509
1510.500000	0.674678
1510.750000	0.671931
1511.000000	0.670253
1511.250000	0.667659
1511.500000	0.665827
1511.750000	0.662776
1512.000000	0.660334
1512.250000	0.657740
1512.500000	0.655146
1512.750000	0.653162
1513.000000	0.650111
1513.250000	0.647974
1513.500000	0.644465
1513.750000	0.642329
1514.000000	0.638972
1514.250000	0.637446
1514.500000	0.634394
1514.750000	0.632105
1515.000000	0.628901
1515.250000	0.626154
1515.500000	0.623713
1515.750000	0.620966
1516.000000	0.618372
1516.250000	0.614862
1516.500000	0.613031
1516.750000	0.609522
1517.000000	0.607843
1517.250000	0.604028
1517.500000	0.601434
1517.750000	0.597772
1518.000000	0.595178
1518.250000	0.592279
1518.500000	0.589075
1518.750000	0.586023
1519.000000	0.582666
1519.250000	0.580377
1519.500000	0.576562
1519.750000	0.574273
1520.000000	0.570459
1520.250000	0.568322
1520.500000	0.564508
1520.750000	0.561456
1521.000000	0.558556
1521.250000	0.555047
1521.500000	0.552453
1521.750000	0.548791
1522.000000	0.545892
1522.250000	0.542229
1522.500000	0.540093
1522.750000	0.535973
1523.000000	0.533532
1523.250000	0.529412
1523.500000	0.526970
1523.750000	0.522850
1524.000000	0.519799
1524.250000	0.516747
1524.500000	0.513695
1524.750000	0.510948
1525.000000	0.506981
1525.250000	0.504540
1525.500000	0.500572
1525.750000	0.498131
1526.000000	0.494011
1526.250000	0.491112
1526.500000	0.487297
1526.750000	0.484550
1527.000000	0.481041
1527.250000	0.477378
1527.500000	0.474479
1527.750000	0.470359
1528.000000	0.468223
1528.250000	0.463951
1528.500000	0.461509
1528.750000	0.457542
1529.000000	0.454490
1529.250000	0.450980
1529.500000	0.447623
1529.750000	0.444114
1530.000000	0.440452
1530.250000	0.437705
1530.500000	0.433890
1530.750000	0.431296
1531.000000	0.427329
1531.250000	0.424887
1531.500000	0.421073
1531.750000	0.418173
1532.000000	0.414511
1532.250000	0.411460
1532.500000	0.407492
1532.750000	0.404135
1533.000000	0.400931
1533.250000	0.396658
1533.500000	0.394369
1533.750000	0.390249
1534.000000	0.387808
1534.250000	0.383688
1534.500000	0.381247
1534.750000	0.377127
1535.000000	0.374228
1535.250000	0.370413
1535.500000	0.367056
1535.750000	0.363851
1536.000000	0.360037
1536.250000	0.357290
1536.500000	0.353170
1536.750000	0.350576
1537.000000	0.345998
1537.250000	0.343709
1537.500000	0.339742
1537.750000	0.337148
1538.000000	0.333486
1538.250000	0.330587
1538.500000	0.327077
1538.750000	0.323415
1539.000000	0.320363
1539.250000	0.316701
1539.500000	0.314107
1539.750000	0.309834
1540.000000	0.307546
1540.250000	0.303578
1540.500000	0.300526
1540.750000	0.296559
1541.000000	0.294118
1541.250000	0.290761
1541.500000	0.287556
1541.750000	0.284047
1542.000000	0.280232
1542.250000	0.277638
1542.500000	0.273671
1542.750000	0.271839
1543.000000	0.267262
1543.250000	0.264973
1543.500000	0.261158
1543.750000	0.258564
1544.000000	0.254749
1544.250000	0.251698
1544.500000	0.248493
1544.750000	0.245594
1545.000000	0.242390
1545.250000	0.238727
1545.500000	0.236133
1545.750000	0.232624
1546.000000	0.230335
1546.250000	0.226673
1546.500000	0.224079
1546.750000	0.220569
1547.000000	0.217212
1547.250000	0.214313
1547.500000	0.211261
1547.750000	0.208515
1548.000000	0.205005
1548.250000	0.202411
1548.500000	0.198749
1548.750000	0.196612
1549.000000	0.192493
1549.250000	0.190814
1549.500000	0.187304
1549.750000	0.185168
1550.000000	0.181964
1550.250000	0.179370
1550.500000	0.176623
1550.750000	0.172808
1551.000000	0.170977
1551.250000	0.167620
1551.500000	0.165789
1551.750000	0.162432
1552.000000	0.160296
1552.250000	0.157092
1552.500000	0.154803
1552.750000	0.151904
1553.000000	0.149310
1553.250000	0.146715
1553.500000	0.143816
1553.750000	0.141680
1554.000000	0.138933
1554.250000	0.137255
1554.500000	0.133593
1554.750000	0.131914
1555.000000	0.128405
1555.250000	0.126726
1555.500000	0.123980
1555.750000	0.121843
1556.000000	0.119554
1556.250000	0.117113
1556.500000	0.115129
1556.750000	0.112840
1557.000000	0.110704
1557.250000	0.107805
1557.500000	0.106126
1557.750000	0.103380
1558.000000	0.101549
1558.250000	0.098497
1558.500000	0.096971
1558.750000	0.094377
1559.000000	0.092699
1559.250000	0.090562
1559.500000	0.088731
1559.750000	0.086442
1560.000000	0.083848
1560.250000	0.082475
1560.500000	0.080186
1560.750000	0.078660
1561.000000	0.076219
1561.250000	0.074693
1561.500000	0.072404
1561.750000	0.071031
1562.000000	0.069047
1562.250000	0.067216
1562.500000	0.065690
1562.750000	0.064012
1563.000000	0.062791
1563.250000	0.060349
1563.500000	0.059281
1563.750000	0.057298
1564.000000	0.056382
1564.250000	0.054398
1564.500000	0.052720
1564.750000	0.051194
1565.000000	0.049973
1565.250000	0.049058
1565.500000	0.047074
1565.750000	0.046159
1566.000000	0.044175
1566.250000	0.043107
1566.500000	0.040818
1566.750000	0.040055
1567.000000	0.038376
1567.250000	0.037461
1567.500000	0.035782
1567.750000	0.034562
1568.000000	0.033646
1568.250000	0.032120
1568.500000	0.031662
1568.750000	0.030442
1569.000000	0.029984
1569.250000	0.028305
1569.500000	0.027543
1569.750000	0.026169
1570.000000	0.025711
1570.250000	0.024338
1570.500000	0.023880
1570.750000	0.022965
1571.000000	0.021744
1571.250000	0.021134
1571.500000	0.019913
1571.750000	0.019608
1572.000000	0.018387
1572.250000	0.018235
1572.500000	0.017014
1572.750000	0.016709
1573.000000	0.015640
1573.250000	0.015183
1573.500000	0.014878
1573.750000	0.014115
1574.000000	0.014267
1574.250000	0.013046
1574.500000	0.013199
1574.750000	0.011978
1575.000000	0.012436
1575.250000	0.010758
1575.500000	0.011063
1575.750000	0.010147
1576.000000	0.009995
1576.250000	0.010147
1576.500000	0.009995
1576.750000	0.009842
1577.000000	0.009232
1577.250000	0.009384
1577.500000	0.008316
1577.750000	0.008774
1578.000000	0.008164
1578.250000	0.008621
1578.500000	0.008164
1578.750000	0.008621
1579.000000	0.008621
1579.250000	0.008469
1579.500000	0.008927
1579.750000	0.008927
1580.000000	0.009537
1580.250000	0.009079
1580.500000	0.009842
1580.750000	0.009995
1581.000000	0.010605
1581.250000	0.010605
1581.500000	0.010910
1581.750000	0.011673
1582.000000	0.011673
1582.250000	0.012589
1582.500000	0.012589
1582.750000	0.013199
1583.000000	0.013657
1583.250000	0.014115
1583.500000	0.014572
1583.750000	0.015640
1584.000000	0.015640
1584.250000	0.016556
1584.500000	0.017166
1584.750000	0.017624
1585.000000	0.018387
1585.250000	0.018845
1585.500000	0.019608
1585.750000	0.020218
1586.000000	0.021439
1586.250000	0.021897
1586.500000	0.023575
1586.750000	0.024338
1587.000000	0.025254
1587.250000	0.026627
1587.500000	0.027543
1587.750000	0.028458
1588.000000	0.029374
1588.250000	0.030442
1588.500000	0.031357
1588.750000	0.032731
1589.000000	0.033494
1589.250000	0.034714
1589.500000	0.035630
1589.750000	0.037156
1590.000000	0.038224
1590.250000	0.039750
1590.500000	0.040970
1590.750000	0.042649
1591.000000	0.044022
1591.250000	0.045090
1591.500000	0.046616
1591.750000	0.047990
1592.000000	0.049516
1592.250000	0.050584
1592.500000	0.052720
1592.750000	0.053941
1593.000000	0.055467
1593.250000	0.056992
1593.500000	0.058366
1593.750000	0.060044
1594.000000	0.061723
1594.250000	0.063859
1594.500000	0.064927
1594.750000	0.067369
1595.000000	0.068589
1595.250000	0.070878
1595.500000	0.071946
1595.750000	0.073930
1596.000000	0.075456
1596.250000	0.077592
1596.500000	0.079423
1596.750000	0.080949
1597.000000	0.082933
1597.250000	0.084611
1597.500000	0.086748
1597.750000	0.088731
1598.000000	0.091020
1598.250000	0.092546
1598.500000	0.094987
1598.750000	0.096513
1599.000000	0.099413
1599.250000	0.100938
1599.500000	0.103227
1599.750000	0.105516
1600.000000	0.107500
1600.250000	0.109941
1600.500000	0.112078
1600.750000	0.114366
1601.000000	0.116350
1601.250000	0.119097
1601.500000	0.120928
1601.750000	0.123522
1602.000000	0.125505
1602.250000	0.128099
1602.500000	0.130388
1602.750000	0.132372
1603.000000	0.134813
1603.250000	0.137102
1603.500000	0.139391
1603.750000	0.141527
1604.000000	0.144274
1604.250000	0.146258
1604.500000	0.149004
1604.750000	0.151293
1605.000000	0.153887
1605.250000	0.156481
1605.500000	0.158923
1605.750000	0.161517
1606.000000	0.164111
1606.250000	0.166705
1606.500000	0.168383
1606.750000	0.171588
1607.000000	0.173877
1607.250000	0.176776
1607.500000	0.179217
1607.750000	0.181964
1608.000000	0.184405
1608.250000	0.186542
1608.500000	0.189746
1608.750000	0.191882
1609.000000	0.194934
1609.250000	0.197223
1609.500000	0.200885
1609.750000	0.203021
1610.000000	0.205615
1610.250000	0.208515
1610.500000	0.211261
1610.750000	0.214313
1611.000000	0.216907
1611.250000	0.219959
1611.500000	0.222248
1611.750000	0.225452
1612.000000	0.227893
1612.250000	0.231098
1612.500000	0.233539
1612.750000	0.236286
1613.000000	0.239033
1613.250000	0.241779
1613.500000	0.244831
1613.750000	0.247272
1614.000000	0.250477
1614.250000	0.253223
1614.500000	0.256580
1614.750000	0.258869
1615.000000	0.262226
1615.250000	0.265126
1615.500000	0.268025
1615.750000	0.271077
1616.000000	0.274128
1616.250000	0.277180
1616.500000	0.279774
1616.750000	0.282521
1617.000000	0.285725
1617.250000	0.288472
1617.500000	0.291371
1617.750000	0.294881
1618.000000	0.297322
1618.250000	0.300679
1618.500000	0.303426
1618.750000	0.306783
1619.000000	0.309834
1619.250000	0.312734
1619.500000	0.315785
1619.750000	0.318532
1620.000000	0.322347
1620.250000	0.324941
1620.500000	0.328298
1620.750000	0.330587
1621.000000	0.333486
1621.250000	0.336233
1621.500000	0.339437
1621.750000	0.342336
1622.000000	0.345541
1622.250000	0.348592
1622.500000	0.351339
1622.750000	0.355001
1623.000000	0.357443
1623.250000	0.361257
1623.500000	0.363546
1623.750000	0.367056
1624.000000	0.369345
1624.250000	0.372854
1624.500000	0.375753
1624.750000	0.378958
1625.000000	0.382162
1625.250000	0.384604
1625.500000	0.387961
1625.750000	0.390555
1626.000000	0.394217
1626.250000	0.396658
1626.500000	0.400473
1626.750000	0.402914
1627.000000	0.406424
1627.250000	0.409171
1627.500000	0.412070
1627.750000	0.415122
1628.000000	0.417563
1628.250000	0.421225
1628.500000	0.423667
1628.750000	0.427176
1629.000000	0.429770
1629.250000	0.433127
1629.500000	0.435416
1629.750000	0.438621
1630.000000	0.441062
1630.250000	0.444572
1630.500000	0.447623
1630.750000	0.449912
1631.000000	0.453269
1631.250000	0.455406
1631.500000	0.458610
1631.750000	0.460746
1632.000000	0.464256
1632.250000	0.466392
1632.500000	0.469749
1632.750000	0.472343
1633.000000	0.475395
1633.250000	0.478294
1633.500000	0.481041
1633.750000	0.483787
1634.000000	0.486076
1634.250000	0.489281
1634.500000	0.491417
1634.750000	0.494621
1635.000000	0.496910
1635.250000	0.500420
1635.500000	0.502556
1635.750000	0.505455
1636.000000	0.508202
1636.250000	0.510491
1636.500000	0.513085
1636.750000	0.515526
1637.000000	0.518425
1637.250000	0.520562
1637.500000	0.523308
1637.750000	0.525597
1638.000000	0.528496
1638.250000	0.530938
1638.500000	0.533074
1638.750000	0.535668
1639.000000	0.538262
1639.250000	0.540856
1639.500000	0.543297
1639.750000	0.545892
1640.000000	0.547875
1640.250000	0.550774
1640.500000	0.552605
1640.750000	0.555200
1641.000000	0.557336
1641.250000	0.559930
1641.500000	0.561913
1641.750000	0.564660
1642.000000	0.567102
1642.250000	0.568780
1642.500000	0.571832
1642.750000	0.573663
1643.000000	0.576562
1643.250000	0.577935
1643.500000	0.580530
1643.750000	0.582361
1644.000000	0.584955
1644.250000	0.586480
1644.500000	0.588006
1644.750000	0.590906
1645.000000	0.592737
1645.250000	0.595178
1645.500000	0.596704
1645.750000	0.599298
1646.000000	0.600519
1646.250000	0.602808
1646.500000	0.604639
1646.750000	0.606470
1647.000000	0.607996
1647.250000	0.609979
1647.500000	0.611811
1647.750000	0.613336
1648.000000	0.615473
1648.250000	0.616846
1648.500000	0.618830
1648.750000	0.620356
1649.000000	0.622034
1649.250000	0.623865
1649.500000	0.625696
1649.750000	0.627375
1650.000000	0.629206
1650.250000	0.630426
1650.500000	0.632105
1650.750000	0.634089
1651.000000	0.635767
1651.250000	0.636988
1651.500000	0.638209
1651.750000	0.639429
1652.000000	0.640803
1652.250000	0.642329
1652.500000	0.643397
1652.750000	0.645228
1653.000000	0.646448
1653.250000	0.647974
1653.500000	0.648585
1653.750000	0.650416
1654.000000	0.651484
1654.250000	0.653162
1654.500000	0.654231
1654.750000	0.655451
1655.000000	0.656519
1655.250000	0.657740
1655.500000	0.659113
1655.750000	0.660029
1656.000000	0.661097
1656.250000	0.661860
1656.500000	0.663233
1656.750000	0.663844
1657.000000	0.665217
1657.250000	0.665827
1657.500000	0.667048
1657.750000	0.667506
1658.000000	0.668879
1658.250000	0.668879
1658.500000	0.670558
1658.750000	0.671321
1659.000000	0.672389
1659.250000	0.672541
1659.500000	0.673457
1659.750000	0.674220
1660.000000	0.674830
1660.250000	0.675746
1660.500000	0.676204
1660.750000	0.676814
1661.000000	0.676966
1661.250000	0.678340
1661.500000	0.678035
1661.750000	0.678950
1662.000000	0.679408
1662.250000	0.680476
1662.500000	0.680629
1662.750000	0.681239
1663.000000	0.681239
1663.250000	0.681849
1663.500000	0.682155
1663.750000	0.682460
1664.000000	0.683070
1664.250000	0.682765
1664.500000	0.683375
1664.750000	0.683070
1665.000000	0.683986
1665.250000	0.683223
1665.500000	0.684138
1665.750000	0.683528
1666.000000	0.684138
1666.250000	0.683833
1666.500000	0.684291
1666.750000	0.684291
1667.000000	0.683833
1667.250000	0.684291
1667.500000	0.683223
1667.750000	0.683986
1668.000000	0.682765
1668.250000	0.683986
1668.500000	0.682765
1668.750000	0.683375
1669.000000	0.682307
1669.250000	0.682612
1669.500000	0.682155
1669.750000	0.681697
1670.000000	0.681392
1670.250000	0.680476
1670.500000	0.681239
1670.750000	0.679713
1671.000000	0.680323
1671.250000	0.678645
1671.500000	0.679408
1671.750000	0.677882
1672.000000	0.678035
1672.250000	0.676814
1672.500000	0.676509
1672.750000	0.675746
1673.000000	0.674678
1673.250000	0.675135
1673.500000	0.673762
1673.750000	0.674220
1674.000000	0.672236
1674.250000	0.672541
1674.500000	0.670863
1674.750000	0.670253
1675.000000	0.669337
1675.250000	0.668269
1675.500000	0.667811
1675.750000	0.666133
1676.000000	0.665980
1676.250000	0.663691
1676.500000	0.663844
1676.750000	0.661707
1677.000000	0.662318
1677.250000	0.660487
1677.500000	0.660182
1677.750000	0.658656
1678.000000	0.657588
1678.250000	0.656367
1678.500000	0.654841
1678.750000	0.654231
1679.000000	0.652552
1679.250000	0.652399
1679.500000	0.650111
1679.750000	0.649653
1680.000000	0.647974
1680.250000	0.647211
1680.500000	0.645228
1680.750000	0.644770
1681.000000	0.643397
1681.250000	0.641871
1681.500000	0.640955
1681.750000	0.638514
1682.000000	0.638056
1682.250000	0.635309
1682.500000	0.635462
1682.750000	0.632715
1683.000000	0.631800
1683.250000	0.629511
1683.500000	0.628443
1683.750000	0.626917
1684.000000	0.625086
1684.250000	0.623865
1684.500000	0.621576
1684.750000	0.621118
1685.000000	0.618219
1685.250000	0.618067
1685.500000	0.614862
1685.750000	0.614404
1686.000000	0.611811
1686.250000	0.610590
1686.500000	0.608606
1686.750000	0.606165
1687.000000	0.604639
1687.250000	0.601892
1687.500000	0.601282
1687.750000	0.598077
1688.000000	0.597314
1688.250000	0.593957
1688.500000	0.593194
1688.750000	0.590448
1689.000000	0.589075
1689.250000	0.586480
1689.500000	0.584649
1689.750000	0.582818
1690.000000	0.580072
1690.250000	0.579004
1690.500000	0.576410
1690.750000	0.575036
1691.000000	0.571832
1691.250000	0.570764
1691.500000	0.567864
1691.750000	0.566033
1692.000000	0.563745
1692.250000	0.561303
1692.500000	0.559014
1692.750000	0.556573
1693.000000	0.554742
1693.250000	0.551995
1693.500000	0.550622
1693.750000	0.547265
1694.000000	0.546197
1694.250000	0.542382
1694.500000	0.541161
1694.750000	0.538415
1695.000000	0.535973
1695.250000	0.534142
1695.500000	0.531701
1695.750000	0.529717
1696.000000	0.526513
1696.250000	0.524529
1696.500000	0.521172
1696.750000	0.519799
1697.000000	0.516747
1697.250000	0.514763
1697.500000	0.512169
1697.750000	0.509575
1698.000000	0.507591
1698.250000	0.504997
1698.500000	0.503166
1698.750000	0.500114
1699.000000	0.498436
1699.250000	0.495232
1699.500000	0.493400
1699.750000	0.490043
1700.000000	0.488060
1700.250000	0.484855
1700.500000	0.482719
1700.750000	0.480278
1701.000000	0.477226
1701.250000	0.475395
1701.500000	0.471885
1701.750000	0.470207
1702.000000	0.466239
1702.250000	0.464714
1702.500000	0.461662
1702.750000	0.459373
1703.000000	0.456626
1703.250000	0.454032
1703.500000	0.451133
1703.750000	0.448081
1704.000000	0.445792
1704.250000	0.442588
1704.500000	0.440299
1704.750000	0.437095
1705.000000	0.435416
1705.250000	0.431754
1705.500000	0.430076
1705.750000	0.426719
1706.000000	0.424430
1706.250000	0.421836
1706.500000	0.418936
1706.750000	0.416495
1707.000000	0.413443
1707.250000	0.411460
1707.500000	0.407950
1707.750000	0.406577
1708.000000	0.402609
1708.250000	0.400778
1708.500000	0.397421
1708.750000	0.395285
1709.000000	0.392233
1709.250000	0.389487
1709.500000	0.387503
1709.750000	0.383688
1710.000000	0.381857
1710.250000	0.377890
1710.500000	0.376822
1710.750000	0.373159
1711.000000	0.371176
1711.250000	0.367819
1711.500000	0.365530
1711.750000	0.362631
1712.000000	0.360189
1712.250000	0.357900
1712.500000	0.355001
1712.750000	0.352865
1713.000000	0.349203
1713.250000	0.347372
1713.500000	0.343862
1713.750000	0.341726
1714.000000	0.338369
1714.250000	0.336233
1714.500000	0.333181
1714.750000	0.330739
1715.000000	0.328298
1715.250000	0.325856
1715.500000	0.324025
1715.750000	0.320668
1716.000000	0.319142
1716.250000	0.316091
1716.500000	0.314107
1716.750000	0.311055
1717.000000	0.309071
1717.250000	0.306020
1717.500000	0.303883
1717.750000	0.300984
1718.000000	0.298238
1718.250000	0.296101
1718.500000	0.292744
1718.750000	0.291218
1719.000000	0.287556
1719.250000	0.286336
1719.500000	0.282521
1719.750000	0.280690
1720.000000	0.277790
1720.250000	0.275807
1720.500000	0.273213
1720.750000	0.270619
1721.000000	0.268788
1721.250000	0.265583
1721.500000	0.264210
1721.750000	0.260700
1722.000000	0.259632
1722.250000	0.255970
1722.500000	0.254444
1722.750000	0.251545
1723.000000	0.249256
1723.250000	0.246662
1723.500000	0.243763
1723.750000	0.241779
1724.000000	0.239033
1724.250000	0.237507
1724.500000	0.234760
1724.750000	0.233539
1725.000000	0.230182
1725.250000	0.229114
1725.500000	0.225757
1725.750000	0.223926
1726.000000	0.221637
1726.250000	0.219654
1726.500000	0.217823
1726.750000	0.214618
1727.000000	0.213397
1727.250000	0.210346
1727.500000	0.209430
1727.750000	0.206226
1728.000000	0.205005
1728.250000	0.202258
1728.500000	0.200732
1728.750000	0.198138
1729.000000	0.195850
1729.250000	0.194629
1729.500000	0.191577
1729.750000	0.190509
1730.000000	0.187457
1730.250000	0.186542
1730.500000	0.183948
1730.750000	0.182727
1731.000000	0.179980
1731.250000	0.178149
1731.500000	0.176318
1731.750000	0.174029
1732.000000	0.172808
1732.250000	0.169909
1732.500000	0.169299
1732.750000	0.166705
1733.000000	0.166247
1733.250000	0.163958
1733.500000	0.163043
1733.750000	0.160601
1734.000000	0.159686
1734.250000	0.157855
1734.500000	0.156176
1734.750000	0.154803
1735.000000	0.152361
1735.250000	0.151904
1735.500000	0.148852
1735.750000	0.148699
1736.000000	0.145647
1736.250000	0.145342
1736.500000	0.142596
1736.750000	0.141680
1737.000000	0.139849
1737.250000	0.138933
1737.500000	0.137865
1737.750000	0.135882
1738.000000	0.135424
1738.250000	0.132677
1738.500000	0.132830
1738.750000	0.130083
1739.000000	0.129931
1739.250000	0.127489
1739.500000	0.127489
1739.750000	0.125658
1740.000000	0.124743
1740.250000	0.123369
1740.500000	0.121843
1740.750000	0.121386
1741.000000	0.119249
1741.250000	0.119860
1741.500000	0.117266
1741.750000	0.117266
1742.000000	0.115129
1742.250000	0.115129
1742.500000	0.113146
1742.750000	0.112078
1743.000000	0.111315
1743.250000	0.110246
1743.500000	0.109789
1743.750000	0.108263
1744.000000	0.108568
1744.250000	0.106279
1744.500000	0.107042
1744.750000	0.104906
1745.000000	0.104906
1745.250000	0.103380
1745.500000	0.103075
1745.750000	0.102312
1746.000000	0.101244
1746.250000	0.101244
1746.500000	0.099413
1746.750000	0.099718
1747.000000	0.097734
1747.250000	0.098192
1747.500000	0.096361
1747.750000	0.097124
1748.000000	0.095598
1748.250000	0.095445
1748.500000	0.094530
1748.750000	0.093919
1749.000000	0.094530
1749.250000	0.092851
1749.500000	0.093462
1749.750000	0.091630
1750.000000	0.093004
1750.250000	0.091478
1750.500000	0.092546
1750.750000	0.090867
1751.000000	0.091478
1751.250000	0.090867
1751.500000	0.090257
1751.750000	0.090715
1752.000000	0.089494
1752.250000	0.090410
1752.500000	0.089189
1752.750000	0.090410
1753.000000	0.088731
1753.250000	0.089799
1753.500000	0.089036
1753.750000	0.089494
1754.000000	0.089036
1754.250000	0.089494
1754.500000	0.089799
1754.750000	0.089036
1755.000000	0.089952
1755.250000	0.088731
1755.500000	0.090257
1755.750000	0.089036
1756.000000	0.090257
1756.250000	0.089647
1756.500000	0.090562
1756.750000	0.089952
1757.000000	0.090410
1757.250000	0.091020
1757.500000	0.090257
1757.750000	0.091630
1758.000000	0.090562
1758.250000	0.092546
1758.500000	0.090867
1758.750000	0.092699
1759.000000	0.092088
1759.250000	0.093614
1759.500000	0.093309
1759.750000	0.093919
1760.000000	0.094530
1760.250000	0.094377
1760.500000	0.095903
1760.750000	0.095293
1761.000000	0.097124
1761.250000	0.096208
1761.500000	0.098192
1761.750000	0.097734
1762.000000	0.099565
1762.250000	0.099413
1762.500000	0.100328
1762.750000	0.101396
1763.000000	0.101396
1763.250000	0.103227
1763.500000	0.103075
1763.750000	0.105211
1764.000000	0.104295
1764.250000	0.106584
1764.500000	0.106126
1764.750000	0.107958
1765.000000	0.107958
1765.250000	0.109178
1765.500000	0.109941
1765.750000	0.110399
1766.000000	0.112383
1766.250000	0.112230
1766.500000	0.114366
1766.750000	0.114214
1767.000000	0.116808
1767.250000	0.116350
1767.500000	0.118944
1767.750000	0.118944
1768.000000	0.120623
1768.250000	0.121843
1768.500000	0.122759
1768.750000	0.125048
1769.000000	0.124895
1769.250000	0.127794
1769.500000	0.127337
1769.750000	0.130083
1770.000000	0.129778
1770.250000	0.132067
1770.500000	0.132219
1770.750000	0.134508
1771.000000	0.135729
1771.250000	0.136645
1771.500000	0.139086
1771.750000	0.139544
1772.000000	0.141985
1772.250000	0.141833
1772.500000	0.144884
1772.750000	0.144732
1773.000000	0.147631
1773.250000	0.147936
1773.500000	0.149920
1773.750000	0.150988
1774.000000	0.152514
1774.250000	0.154345
1774.500000	0.154955
1774.750000	0.158160
1775.000000	0.158312
1775.250000	0.161822
1775.500000	0.161517
1775.750000	0.165179
1776.000000	0.165179
1776.250000	0.167926
1776.500000	0.168994
1776.750000	0.170825
1777.000000	0.172961
1777.250000	0.173724
1777.500000	0.177234
1777.750000	0.176928
1778.000000	0.180438
1778.250000	0.180591
1778.500000	0.184405
1778.750000	0.184710
1779.000000	0.187610
1779.250000	0.188830
1779.500000	0.190967
1779.750000	0.193256
1780.000000	0.194171
1780.250000	0.197223
1780.500000	0.197681
1780.750000	0.201190
1781.000000	0.201648
1781.250000	0.205310
1781.500000	0.205921
1781.750000	0.209277
1782.000000	0.210193
1782.250000	0.212634
1782.500000	0.215076
1782.750000	0.216449
1783.000000	0.219654
1783.250000	0.220264
1783.500000	0.223774
1783.750000	0.224079
1784.000000	0.228046
1784.250000	0.228656
1784.500000	0.232319
1784.750000	0.233539
1785.000000	0.236286
1785.250000	0.238117
1785.500000	0.240101
1785.750000	0.243305
1786.000000	0.243915
1786.250000	0.248188
1786.500000	0.249104
1786.750000	0.253223
1787.000000	0.253834
1787.250000	0.257191
1787.500000	0.258564
1787.750000	0.261463
1788.000000	0.263142
1788.250000	0.265431
1788.500000	0.268025
1788.750000	0.268788
1789.000000	0.272602
1789.250000	0.273365
1789.500000	0.277333
1789.750000	0.278248
1790.000000	0.281910
1790.250000	0.283284
1790.500000	0.286336
1790.750000	0.288014
1791.000000	0.290608
1791.250000	0.293202
1791.500000	0.294575
1791.750000	0.298390
1792.000000	0.299001
1792.250000	0.303426
1792.500000	0.303731
1792.750000	0.307698
1793.000000	0.308766
1793.250000	0.312123
1793.500000	0.313802
1793.750000	0.316548
1794.000000	0.319142
1794.250000	0.320668
1794.500000	0.323873
1794.750000	0.324788
1795.000000	0.328756
1795.250000	0.329671
1795.500000	0.333639
1795.750000	0.334707
1796.000000	0.338674
1796.250000	0.340200
1796.500000	0.342794
1796.750000	0.345235
1797.000000	0.347066
1797.250000	0.350729
1797.500000	0.351492
1797.750000	0.355764
1798.000000	0.356374
1798.250000	0.360647
1798.500000	0.361257
1798.750000	0.364920
1799.000000	0.366598
1799.250000	0.369039
1799.500000	0.371176
1799.750000	0.373159
1800.000000	0.375906
1800.250000	0.377432
1800.500000	0.380941
1800.750000	0.382010
1801.000000	0.385977
1801.250000	0.387198
1801.500000	0.390402
1801.750000	0.392081
1802.000000	0.394369
1802.250000	0.396963
1802.500000	0.399252
1802.750000	0.402304
1803.000000	0.404135
1803.250000	0.406882
1803.500000	0.408560
1803.750000	0.411765
1804.000000	0.413138
1804.250000	0.415885
1804.500000	0.418021
1804.750000	0.420157
1805.000000	0.422751
1805.250000	0.424125
1805.500000	0.427482
1805.750000	0.428397
1806.000000	0.432212
1806.250000	0.433280
1806.500000	0.436637
1806.750000	0.438010
1807.000000	0.440757
1807.250000	0.443046
1807.500000	0.445335
1807.750000	0.447776
1808.000000	0.449149
1808.250000	0.451896
1808.500000	0.453269
1808.750000	0.456626
1809.000000	0.457542
1809.250000	0.460746
1809.500000	0.462425
1809.750000	0.465324
1810.000000	0.467002
1810.250000	0.469444
1810.500000	0.471275
1810.750000	0.472648
1811.000000	0.475700
1811.250000	0.477073
1811.500000	0.479973
1811.750000	0.481193
1812.000000	0.484092
1812.250000	0.485466
1812.500000	0.487755
1812.750000	0.489433
1813.000000	0.491875
1813.250000	0.494163
1813.500000	0.495842
1813.750000	0.498283
1814.000000	0.499352
1814.250000	0.502098
1814.500000	0.503166
1814.750000	0.505455
1815.000000	0.506828
1815.250000	0.509117
1815.500000	0.510796
1815.750000	0.513085
1816.000000	0.514916
1816.250000	0.516594
1816.500000	0.518730
1816.750000	0.520256
1817.000000	0.522393
1817.250000	0.523613
1817.500000	0.526055
1817.750000	0.527428
1818.000000	0.529717
1818.250000	0.531243
1818.500000	0.533227
1818.750000	0.534905
1819.000000	0.536583
1819.250000	0.538415
1819.500000	0.539940
1819.750000	0.541924
1820.000000	0.542840
1820.250000	0.544976
1820.500000	0.546044
1820.750000	0.548180
1821.000000	0.549096
1821.250000	0.551537
1821.500000	0.552911
1821.750000	0.554437
1822.000000	0.555962
1822.250000	0.557031
1822.500000	0.558862
1822.750000	0.559930
1823.000000	0.562219
1823.250000	0.562982
1823.500000	0.564965
1823.750000	0.565728
1824.000000	0.567407
1824.250000	0.568475
1824.500000	0.569848
1824.750000	0.571679
1825.000000	0.572595
1825.250000	0.574426
1825.500000	0.574884
1825.750000	0.577020
1826.000000	0.577630
1826.250000	0.579767
1826.500000	0.580224
1826.750000	0.582208
1827.000000	0.582971
1827.250000	0.584192
1827.500000	0.585260
1827.750000	0.586480
1828.000000	0.587549
1828.250000	0.588617
1828.500000	0.590295
1828.750000	0.590448
1829.000000	0.591821
1829.250000	0.592584
1829.500000	0.594263
1829.750000	0.595178
1830.000000	0.596246
1830.250000	0.596857
1830.500000	0.597772
1830.750000	0.598688
1831.000000	0.599145
1831.250000	0.600671
1831.500000	0.600824
1831.750000	0.602197
1832.000000	0.602045
1832.250000	0.603723
1832.500000	0.603876
1832.750000	0.604944
1833.000000	0.605707
1833.250000	0.606317
1833.500000	0.607233
1833.750000	0.607843
1834.000000	0.609216
1834.250000	0.609216
1834.500000	0.610437
1834.750000	0.610285
1835.000000	0.611658
1835.250000	0.611200
1835.500000	0.612421
1835.750000	0.612573
1836.000000	0.613489
1836.250000	0.613947
1836.500000	0.614252
1836.750000	0.615320
1837.000000	0.615320
1837.250000	0.616388
1837.500000	0.616083
1837.750000	0.617151
1838.000000	0.616693
1838.250000	0.617456
1838.500000	0.617304
1838.750000	0.617914
1839.000000	0.618219
1839.250000	0.618372
1839.500000	0.618677
1839.750000	0.618677
1840.000000	0.619593
1840.250000	0.618982
1840.500000	0.619745
1840.750000	0.618982
1841.000000	0.619440
1841.250000	0.618830
1841.500000	0.619287
1841.750000	0.619135
1842.000000	0.619287
1842.250000	0.619745
1842.500000	0.619440
1842.750000	0.619745
1843.000000	0.618982
1843.250000	0.619440
1843.500000	0.618830
1843.750000	0.618982
1844.000000	0.618219
1844.250000	0.618677
1844.500000	0.618219
1844.750000	0.618067
1845.000000	0.618219
1845.250000	0.617609
1845.500000	0.617609
1845.750000	0.616846
1846.000000	0.617151
1846.250000	0.616083
1846.500000	0.616236
1846.750000	0.615320
1847.000000	0.615320
1847.250000	0.614404
1847.500000	0.614404
1847.750000	0.613642
1848.000000	0.613031
1848.250000	0.613184
1848.500000	0.612116
1848.750000	0.612421
1849.000000	0.611353
1849.250000	0.611658
1849.500000	0.610437
1849.750000	0.610285
1850.000000	0.609216
1850.250000	0.608606
1850.500000	0.607843
1850.750000	0.606928
1851.000000	0.606470
1851.250000	0.605402
1851.500000	0.605402
1851.750000	0.603876
1852.000000	0.603876
1852.250000	0.602197
1852.500000	0.602045
1852.750000	0.601129
1853.000000	0.600366
1853.250000	0.600061
1853.500000	0.598840
1853.750000	0.598383
1854.000000	0.596857
1854.250000	0.596246
1854.500000	0.594415
1854.750000	0.593957
1855.000000	0.592584
1855.250000	0.592126
1855.500000	0.590753
1855.750000	0.590143
1856.000000	0.588922
1856.250000	0.587701
1856.500000	0.586786
1856.750000	0.585565
1857.000000	0.585107
1857.250000	0.583276
1857.500000	0.582818
1857.750000	0.580835
1858.000000	0.580072
1858.250000	0.578851
1858.500000	0.577325
1858.750000	0.576257
1859.000000	0.574884
1859.250000	0.573816
1859.500000	0.572290
1859.750000	0.571374
1860.000000	0.569390
1860.250000	0.568780
1860.500000	0.566949
1860.750000	0.566339
1861.000000	0.564813
1861.250000	0.563439
1861.500000	0.561913
1861.750000	0.560845
1862.000000	0.559777
1862.250000	0.557946
1862.500000	0.556878
1862.750000	0.555200
1863.000000	0.554437
1863.250000	0.552148
1863.500000	0.551080
1863.750000	0.548943
1864.000000	0.547723
1864.250000	0.545892
1864.500000	0.544518
1864.750000	0.542992
1865.000000	0.540856
1865.250000	0.540246
1865.500000	0.538109
1865.750000	0.536889
1866.000000	0.535058
1866.250000	0.533989
1866.500000	0.531853
1866.750000	0.530327
1867.000000	0.528649
1867.250000	0.526818
1867.500000	0.525444
1867.750000	0.523308
1868.000000	0.522087
1868.250000	0.519799
1868.500000	0.518883
1868.750000	0.516136
1869.000000	0.515068
1869.250000	0.512627
1869.500000	0.511406
1869.750000	0.509117
1870.000000	0.507591
1870.250000	0.505760
1870.500000	0.503624
1870.750000	0.502556
1871.000000	0.500267
1871.250000	0.498589
1871.500000	0.496300
1871.750000	0.494926
1872.000000	0.492485
1872.250000	0.491112
1872.500000	0.488975
1872.750000	0.487449
1873.000000	0.485161
1873.250000	0.483482
1873.500000	0.482261
1873.750000	0.479362
1874.000000	0.477989
1874.250000	0.475547
1874.500000	0.474327
1874.750000	0.471580
1875.000000	0.470054
1875.250000	0.467765
1875.500000	0.466087
1875.750000	0.463951
1876.000000	0.461662
1876.250000	0.459678
1876.500000	0.457389
1876.750000	0.456168
1877.000000	0.453574
1877.250000	0.452201
1877.500000	0.449454
1877.750000	0.447929
1878.000000	0.445335
1878.250000	0.443656
1878.500000	0.441520
1878.750000	0.439384
1879.000000	0.438010
1879.250000	0.435264
1879.500000	0.434043
1879.750000	0.431144
1880.000000	0.430381
1880.250000	0.426871
1880.500000	0.425803
1880.750000	0.423209
1881.000000	0.421378
1881.250000	0.418631
1881.500000	0.416800
1881.750000	0.415122
1882.000000	0.412375
1882.250000	0.411154
1882.500000	0.407645
1882.750000	0.407034
1883.000000	0.403677
1883.250000	0.402609
1883.500000	0.399863
1883.750000	0.398642
1884.000000	0.396048
1884.250000	0.394064
1884.500000	0.392538
1884.750000	0.389639
1885.000000	0.388418
1885.250000	0.385367
1885.500000	0.383841
1885.750000	0.381094
1886.000000	0.380331
1886.250000	0.376669
1886.500000	0.375753
1886.750000	0.373159
1887.000000	0.371176
1887.250000	0.369345
1887.500000	0.366903
1887.750000	0.365377
1888.000000	0.362631
1888.250000	0.361410
1888.500000	0.357748
1888.750000	0.356832
1889.000000	0.353780
1889.250000	0.352865
1889.500000	0.350118
1889.750000	0.348592
1890.000000	0.346151
1890.250000	0.343709
1890.500000	0.341878
1890.750000	0.338979
1891.000000	0.338064
1891.250000	0.335012
1891.500000	0.333791
1891.750000	0.330739
1892.000000	0.329671
1892.250000	0.327382
1892.500000	0.325399
1892.750000	0.323568
1893.000000	0.320974
1893.250000	0.319753
1893.500000	0.317311
1893.750000	0.316091
1894.000000	0.313039
1894.250000	0.312428
1894.500000	0.309529
1894.750000	0.308919
1895.000000	0.306172
1895.250000	0.304646
1895.500000	0.302663
1895.750000	0.300221
1896.000000	0.299001
1896.250000	0.296101
1896.500000	0.294881
1896.750000	0.292134
1897.000000	0.291066
1897.250000	0.287709
1897.500000	0.286946
1897.750000	0.284657
1898.000000	0.283284
1898.250000	0.281147
1898.500000	0.279164
1898.750000	0.277943
1899.000000	0.275044
1899.250000	0.274281
1899.500000	0.271534
1899.750000	0.270771
1900.000000	0.267567
1900.250000	0.266651
1900.500000	0.264515
1900.750000	0.262684
1901.000000	0.260853
1901.250000	0.259022
1901.500000	0.257954
1901.750000	0.255512
1902.000000	0.254597
1902.250000	0.251850
1902.500000	0.251087
1902.750000	0.248035
1903.000000	0.247578
1903.250000	0.245136
1903.500000	0.243763
1903.750000	0.242084
1904.000000	0.240711
1904.250000	0.239338
1904.500000	0.237049
1904.750000	0.236286
1905.000000	0.233539
1905.250000	0.232929
1905.500000	0.230335
1905.750000	0.229725
1906.000000	0.227283
1906.250000	0.226215
1906.500000	0.224537
1906.750000	0.223163
1907.000000	0.222095
1907.250000	0.220264
1907.500000	0.219348
1907.750000	0.217060
1908.000000	0.216449
1908.250000	0.213855
1908.500000	0.213397
1908.750000	0.210956
1909.000000	0.210040
1909.250000	0.208667
1909.500000	0.207141
1909.750000	0.206073
1910.000000	0.203937
1910.250000	0.203632
1910.500000	0.201495
1910.750000	0.201495
1911.000000	0.199054
1911.250000	0.198596
1911.500000	0.196612
1911.750000	0.196155
1912.000000	0.194781
1912.250000	0.193256
1912.500000	0.192798
1912.750000	0.190967
1913.000000	0.190509
1913.250000	0.188525
1913.500000	0.188067
1913.750000	0.185931
1914.000000	0.185931
1914.250000	0.183948
1914.500000	0.183185
1914.750000	0.182269
1915.000000	0.181048
1915.250000	0.180438
1915.500000	0.178912
1915.750000	0.178759
1916.000000	0.177081
1916.250000	0.177234
1916.500000	0.175097
1916.750000	0.174792
1917.000000	0.172961
1917.250000	0.173266
1917.500000	0.171588
1917.750000	0.170672
1918.000000	0.170062
1918.250000	0.168383
1918.500000	0.168536
1918.750000	0.166705
1919.000000	0.167010
1919.250000	0.165484
1919.500000	0.165942
1919.750000	0.164416
1920.000000	0.164111
1920.250000	0.163043
1920.500000	0.162127
1920.750000	0.161364
1921.000000	0.160296
1921.250000	0.160449
1921.500000	0.159380
1921.750000	0.159533
1922.000000	0.158312
1922.250000	0.158312
1922.500000	0.156786
1922.750000	0.157092
1923.000000	0.156024
1923.250000	0.155566
1923.500000	0.155108
1923.750000	0.154650
1924.000000	0.155108
1924.250000	0.154040
1924.500000	0.154192
1924.750000	0.152667
1925.000000	0.153429
1925.250000	0.152209
1925.500000	0.152514
1925.750000	0.151904
1926.000000	0.151904
1926.250000	0.151446
1926.500000	0.150988
1926.750000	0.151598
1927.000000	0.150683
1927.250000	0.151141
1927.500000	0.150378
1927.750000	0.151141
1928.000000	0.150072
1928.250000	0.151141
1928.500000	0.150378
1928.750000	0.150683
1929.000000	0.150378
1929.250000	0.150225
1929.500000	0.150378
1929.750000	0.149462
1930.000000	0.150530
1930.250000	0.149920
1930.500000	0.150378
1930.750000	0.149462
1931.000000	0.150683
1931.250000	0.150072
1931.500000	0.150683
1931.750000	0.150378
1932.000000	0.150530
1932.250000	0.150835
1932.500000	0.150378
1932.750000	0.151293
1933.000000	0.150225
1933.250000	0.151598
1933.500000	0.150988
1933.750000	0.152361
1934.000000	0.152209
1934.250000	0.153124
1934.500000	0.153124
1934.750000	0.153277
1935.000000	0.154040
1935.250000	0.153735
1935.500000	0.155108
1935.750000	0.154498
1936.000000	0.156176
1936.250000	0.155261
1936.500000	0.157092
1936.750000	0.156786
1937.000000	0.157702
1937.250000	0.157702
1937.500000	0.158465
1937.750000	0.158770
1938.000000	0.158770
1938.250000	0.160449
1938.500000	0.160143
1938.750000	0.161517
1939.000000	0.161364
1939.250000	0.162890
1939.500000	0.162890
1939.750000	0.163958
1940.000000	0.164263
1940.250000	0.165484
1940.500000	0.166094
1940.750000	0.166552
1941.000000	0.167468
1941.250000	0.167926
1941.500000	0.169604
1941.750000	0.169604
1942.000000	0.171130
1942.250000	0.171435
1942.500000	0.172656
1942.750000	0.172961
1943.000000	0.174029
1943.250000	0.175250
1943.500000	0.176165
1943.750000	0.177386
1944.000000	0.177691
1944.250000	0.179370
1944.500000	0.179522
1944.750000	0.181506
1945.000000	0.181964
1945.250000	0.183032
1945.500000	0.184100
1945.750000	0.184863
1946.000000	0.186389
1946.250000	0.187152
1946.500000	0.189441
1946.750000	0.189441
1947.000000	0.191272
1947.250000	0.191272
1947.500000	0.193256
1947.750000	0.193256
1948.000000	0.195087
1948.250000	0.195697
1948.500000	0.197223
1948.750000	0.197986
1949.000000	0.199054
1949.250000	0.200732
1949.500000	0.201648
1949.750000	0.203632
1950.000000	0.203784
1950.250000	0.206226
1950.500000	0.206989
1950.750000	0.208972
1951.000000	0.209430
1951.250000	0.211261
1951.500000	0.212787
1951.750000	0.213855
1952.000000	0.215686
1952.250000	0.216297
1952.500000	0.218738
1952.750000	0.218891
1953.000000	0.221790
1953.250000	0.221790
1953.500000	0.224231
1953.750000	0.224842
1954.000000	0.226673
1954.250000	0.228199
1954.500000	0.229572
1954.750000	0.231556
1955.000000	0.231861
1955.250000	0.234607
1955.500000	0.235065
1955.750000	0.237507
1956.000000	0.238117
1956.250000	0.240864
1956.500000	0.242084
1956.750000	0.243610
1957.000000	0.244678
1957.250000	0.246204
1957.500000	0.248341
1957.750000	0.248798
1958.000000	0.252003
1958.250000	0.252308
1958.500000	0.255360
1958.750000	0.255512
1959.000000	0.258106
1959.250000	0.258869
1959.500000	0.260853
1959.750000	0.262531
1960.000000	0.264210
1960.250000	0.266041
1960.500000	0.266957
1960.750000	0.269703
1961.000000	0.269856
1961.250000	0.273213
1961.500000	0.273671
1961.750000	0.276417
1962.000000	0.277180
1962.250000	0.279622
1962.500000	0.280842
1962.750000	0.282521
1963.000000	0.285115
1963.250000	0.286336
1963.500000	0.289540
1963.750000	0.289693
1964.000000	0.292592
1964.250000	0.292744
1964.500000	0.296101
1964.750000	0.296559
1965.000000	0.299306
1965.250000	0.300221
1965.500000	0.301900
1965.750000	0.304189
1966.000000	0.305715
1966.250000	0.308156
1966.500000	0.309071
1966.750000	0.312428
1967.000000	0.312581
1967.250000	0.315938
1967.500000	0.316243
1967.750000	0.318837
1968.000000	0.320363
1968.250000	0.322652
1968.500000	0.324331
1968.750000	0.325856
1969.000000	0.328756
1969.250000	0.329061
1969.500000	0.331960
1969.750000	0.332570
1970.000000	0.335927
1970.250000	0.336843
1970.500000	0.339132
1970.750000	0.340505
1971.000000	0.342489
1971.250000	0.344472
1971.500000	0.345998
1971.750000	0.348745
1972.000000	0.349508
1972.250000	0.352407
1972.500000	0.352407
1972.750000	0.355764
1973.000000	0.356527
1973.250000	0.359579
1973.500000	0.360800
1973.750000	0.362936
1974.000000	0.364614
1974.250000	0.366751
1974.500000	0.368887
1974.750000	0.369802
1975.000000	0.372854
1975.250000	0.373007
1975.500000	0.376364
1975.750000	0.376822
1976.000000	0.379568
1976.250000	0.380636
1976.500000	0.382773
1976.750000	0.384604
1977.000000	0.386282
1977.250000	0.388876
1977.500000	0.389487
1977.750000	0.393149
1978.000000	0.392996
1978.250000	0.396811
1978.500000	0.396963
1978.750000	0.400320
1979.000000	0.400320
1979.250000	0.402304
1979.500000	0.403372
1979.750000	0.405966
1980.000000	0.408255
1980.250000	0.409323
1980.500000	0.412528
1980.750000	0.412985
1981.000000	0.416800
1981.250000	0.416495
1981.500000	0.419852
1981.750000	0.420768
1982.000000	0.423209
1982.250000	0.424582
1982.500000	0.426261
1982.750000	0.428244
1983.000000	0.428702
1983.250000	0.432059
1983.500000	0.431907
1983.750000	0.436179
1984.000000	0.435874
1984.250000	0.439078
1984.500000	0.438926
1984.750000	0.442435
1985.000000	0.443046
1985.250000	0.445182
1985.500000	0.447013
1985.750000	0.448234
1986.000000	0.451438
1986.250000	0.451438
1986.500000	0.454490
1986.750000	0.454337
1987.000000	0.458000
1987.250000	0.457847
1987.500000	0.460899
1987.750000	0.461357
1988.000000	0.463798
1988.250000	0.465019
1988.500000	0.465782
1988.750000	0.468681
1989.000000	0.469139
1989.250000	0.472190
1989.500000	0.471275
1989.750000	0.474937
1990.000000	0.474632
1990.250000	0.477989
1990.500000	0.478141
1990.750000	0.480430
1991.000000	0.481193
1991.250000	0.482567
1991.500000	0.484703
1991.750000	0.485161
1992.000000	0.488212
1992.250000	0.488212
1992.500000	0.491722
1992.750000	0.491264
1993.000000	0.494011
1993.250000	0.494011
1993.500000	0.496452
1993.750000	0.497520
1994.000000	0.498741
1994.250000	0.500877
1994.500000	0.500725
1994.750000	0.503777
1995.000000	0.503014
1995.250000	0.506828
1995.500000	0.505913
1995.750000	0.508965
1996.000000	0.508812
1996.250000	0.511101
1996.500000	0.511711
1996.750000	0.513390
1997.000000	0.515068
1997.250000	0.515068
1997.500000	0.517815
1997.750000	0.517205
1998.000000	0.520409
1998.250000	0.519646
1998.500000	0.522393
1998.750000	0.521630
1999.000000	0.524224
1999.250000	0.524987
1999.500000	0.526207
1999.750000	0.527581
2000.000000	0.527886
2000.250000	0.530175
2000.500000	0.529717
2000.750000	0.532616
2001.000000	0.531701
2001.250000	0.534295
2001.500000	0.533684
2001.750000	0.535973
2002.000000	0.536126
2002.250000	0.537041
2002.500000	0.538262
2002.750000	0.539178
2003.000000	0.541161
2003.250000	0.540551
2003.500000	0.542992
2003.750000	0.541772
2004.000000	0.544518
2004.250000	0.543908
2004.500000	0.546197
2004.750000	0.545586
2005.000000	0.546654
2005.250000	0.547723
2005.500000	0.548028
2005.750000	0.549859
2006.000000	0.549401
2006.250000	0.551995
2006.500000	0.551385
2006.750000	0.553674
2007.000000	0.552605
2007.250000	0.555047
2007.500000	0.553979
2007.750000	0.555352
2008.000000	0.555200
2008.250000	0.555962
2008.500000	0.557183
2008.750000	0.556878
2009.000000	0.558404
2009.250000	0.557641
2009.500000	0.559472
2009.750000	0.559014
2010.000000	0.560845
2010.250000	0.560235
2010.500000	0.561456
2010.750000	0.561303
2011.000000	0.561456
2011.250000	0.562371
2011.500000	0.562066
2011.750000	0.563439
2012.000000	0.562371
2012.250000	0.564660
2012.500000	0.563287
2012.750000	0.565270
2013.000000	0.564202
2013.250000	0.565576
2013.500000	0.565118
2013.750000	0.565728
2014.000000	0.566339
2014.250000	0.565576
2014.500000	0.566491
2014.750000	0.565576
2015.000000	0.567407
2015.250000	0.565881
2015.500000	0.567559
2015.750000	0.566796
2016.000000	0.567559
2016.250000	0.567254
2016.500000	0.567254
2016.750000	0.567254
2017.000000	0.567102
2017.250000	0.567864
2017.500000	0.566796
2017.750000	0.567864
2018.000000	0.566339
2018.250000	0.567712
2018.500000	0.566796
2018.750000	0.568017
2019.000000	0.567254
2019.250000	0.567407
2019.500000	0.566796
2019.750000	0.566644
2020.000000	0.567254
2020.250000	0.566644
2020.500000	0.567102
2020.750000	0.565728
2021.000000	0.566949
2021.250000	0.565423
2021.500000	0.566186
2021.750000	0.564813
2022.000000	0.565423
2022.250000	0.565118
2022.500000	0.565270
2022.750000	0.565423
2023.000000	0.564508
2023.250000	0.565118
2023.500000	0.563745
2023.750000	0.564202
2024.000000	0.562371
2024.250000	0.563134
2024.500000	0.562219
2024.750000	0.562066
2025.000000	0.561608
2025.250000	0.560845
2025.500000	0.560540
2025.750000	0.559319
2026.000000	0.559777
2026.250000	0.558251
2026.500000	0.559167
2026.750000	0.557183
2027.000000	0.557946
2027.250000	0.556268
2027.500000	0.556115
2027.750000	0.555047
2028.000000	0.554284
2028.250000	0.554284
2028.500000	0.552911
2028.750000	0.553521
2029.000000	0.551690
2029.250000	0.552453
2029.500000	0.550622
2029.750000	0.551080
2030.000000	0.549554
2030.250000	0.548943
2030.500000	0.549096
2030.750000	0.547570
2031.000000	0.547417
2031.250000	0.545586
2031.500000	0.546044
2031.750000	0.544060
2032.000000	0.544976
2032.250000	0.542382
2032.500000	0.542992
2032.750000	0.541466
2033.000000	0.541314
2033.250000	0.539788
2033.500000	0.538720
2033.750000	0.538262
2034.000000	0.536278
2034.250000	0.536889
2034.500000	0.534752
2034.750000	0.534600
2035.000000	0.532769
2035.250000	0.532464
2035.500000	0.530938
2035.750000	0.529717
2036.000000	0.529412
2036.250000	0.527581
2036.500000	0.527276
2036.750000	0.525444
2037.000000	0.525750
2037.250000	0.523613
2037.500000	0.523613
2037.750000	0.521782
2038.000000	0.521019
2038.250000	0.519799
2038.500000	0.518578
2038.750000	0.517662
2039.000000	0.515526
2039.250000	0.515373
2039.500000	0.512932
2039.750000	0.513085
2040.000000	0.510338
2040.250000	0.510338
2040.500000	0.507897
2040.750000	0.507744
2041.000000	0.505913
2041.250000	0.504692
2041.500000	0.503929
2041.750000	0.501793
2042.000000	0.501793
2042.250000	0.498894
2042.500000	0.499504
2042.750000	0.495995
2043.000000	0.496452
2043.250000	0.493858
2043.500000	0.493248
2043.750000	0.491569
2044.000000	0.490196
2044.250000	0.488823
2044.500000	0.486839
2044.750000	0.486839
2045.000000	0.483635
2045.250000	0.483787
2045.500000	0.481041
2045.750000	0.481041
2046.000000	0.478294
2046.250000	0.477989
2046.500000	0.476005
2046.750000	0.474479
2047.000000	0.473411
2047.250000	0.471275
2047.500000	0.470970
2047.750000	0.468223
2048.000000	0.468071
2048.250000	0.465171
2048.500000	0.464714
2048.750000	0.462119
2049.000000	0.461204
2049.250000	0.459220
2049.500000	0.457542
2049.750000	0.456321
2050.000000	0.453880
2050.250000	0.453117
2050.500000	0.450523
2050.750000	0.449912
2051.000000	0.447013
2051.250000	0.446250
2051.500000	0.444114
2051.750000	0.443046
2052.000000	0.441367
2052.250000	0.439536
2052.500000	0.438468
2052.750000	0.436332
2053.000000	0.435416
2053.250000	0.433127
2053.500000	0.432517
2053.750000	0.429923
2054.000000	0.429618
2054.250000	0.427329
2054.500000	0.426261
2054.750000	0.424430
2055.000000	0.422446
2055.250000	0.421225
2055.500000	0.418936
2055.750000	0.418021
2056.000000	0.415427
2056.250000	0.414816
2056.500000	0.412222
2056.750000	0.411307
2057.000000	0.408713
2057.250000	0.407645
2057.500000	0.405966
2057.750000	0.404440
2058.000000	0.402762
2058.250000	0.400473
2058.500000	0.399405
2058.750000	0.397421
2059.000000	0.396811
2059.250000	0.394217
2059.500000	0.393454
2059.750000	0.391012
2060.000000	0.389792
2060.250000	0.387655
2060.500000	0.386282
2060.750000	0.384298
2061.000000	0.382315
2061.250000	0.381552
2061.500000	0.379263
2061.750000	0.378653
2062.000000	0.375601
2062.250000	0.374990
2062.500000	0.372702
2062.750000	0.371176
2063.000000	0.369497
2063.250000	0.367819
2063.500000	0.366445
2063.750000	0.364767
2064.000000	0.363699
2064.250000	0.361410
2064.500000	0.360494
2064.750000	0.358053
2065.000000	0.357595
2065.250000	0.355001
2065.500000	0.354391
2065.750000	0.351949
2066.000000	0.350576
2066.250000	0.348592
2066.500000	0.346914
2066.750000	0.345541
2067.000000	0.343252
2067.250000	0.342489
2067.500000	0.340505
2067.750000	0.339742
2068.000000	0.337148
2068.250000	0.336080
2068.500000	0.333639
2068.750000	0.332570
2069.000000	0.330892
2069.250000	0.329366
2069.500000	0.327993
2069.750000	0.325551
2070.000000	0.324941
2070.250000	0.322652
2070.500000	0.322194
2070.750000	0.319448
2071.000000	0.318532
2071.250000	0.316548
2071.500000	0.315480
2071.750000	0.313802
2072.000000	0.311971
2072.250000	0.311360
2072.500000	0.308919
2072.750000	0.308614
2073.000000	0.305867
2073.250000	0.305562
2073.500000	0.302815
2073.750000	0.302663
2074.000000	0.300374
2074.250000	0.299306
2074.500000	0.297780
2074.750000	0.295949
2075.000000	0.294881
2075.250000	0.292744
2075.500000	0.292592
2075.750000	0.290150
2076.000000	0.289693
2076.250000	0.286946
2076.500000	0.286793
2076.750000	0.284657
2077.000000	0.283894
2077.250000	0.282673
2077.500000	0.281300
2077.750000	0.280385
2078.000000	0.277943
2078.250000	0.277790
2078.500000	0.275349
2078.750000	0.275196
2079.000000	0.273060
2079.250000	0.272145
2079.500000	0.270466
2079.750000	0.269551
2080.000000	0.268330
2080.250000	0.267262
2080.500000	0.265888
2080.750000	0.263752
2081.000000	0.263294
2081.250000	0.260700
2081.500000	0.260548
2081.750000	0.258412
2082.000000	0.258259
2082.250000	0.256275
2082.500000	0.255360
2082.750000	0.254139
2083.000000	0.253071
2083.250000	0.252308
2083.500000	0.250477
2083.750000	0.250019
2084.000000	0.248035
2084.250000	0.248188
2084.500000	0.246204
2084.750000	0.246204
2085.000000	0.243915
2085.250000	0.243610
2085.500000	0.242237
2085.750000	0.241169
2086.000000	0.240558
2086.250000	0.239338
2086.500000	0.238727
2086.750000	0.236591
2087.000000	0.236439
2087.250000	0.234302
2087.500000	0.235065
2087.750000	0.232776
2088.000000	0.232776
2088.250000	0.231403
2088.500000	0.230488
2088.750000	0.230030
2089.000000	0.228351
2089.250000	0.228504
2089.500000	0.226825
2089.750000	0.226673
2090.000000	0.224384
2090.250000	0.225147
2090.500000	0.223468
2090.750000	0.223468
2091.000000	0.221942
2091.250000	0.221637
2091.500000	0.220874
2091.750000	0.219654
2092.000000	0.219654
2092.250000	0.218280
2092.500000	0.218738
2092.750000	0.216754
2093.000000	0.217365
2093.250000	0.215381
2093.500000	0.215228
2093.750000	0.214160
2094.000000	0.214008
2094.250000	0.213855
2094.500000	0.212787
2094.750000	0.212787
2095.000000	0.211719
2095.250000	0.211566
2095.500000	0.210193
2095.750000	0.210956
2096.000000	0.209277
2096.250000	0.209430
2096.500000	0.208362
2096.750000	0.208057
2097.000000	0.207446
2097.250000	0.207141
2097.500000	0.206989
2097.750000	0.205768
2098.000000	0.205768
2098.250000	0.204852
2098.500000	0.205158
2098.750000	0.204547
2099.000000	0.204547
2099.250000	0.204089
2099.500000	0.203784
2099.750000	0.203174
2100.000000	0.202564
2100.250000	0.202869
2100.500000	0.201953
2100.750000	0.202106
2101.000000	0.201648
2101.250000	0.201801
2101.500000	0.200885
2101.750000	0.201495
2102.000000	0.200580
2102.250000	0.201038
2102.500000	0.200580
2102.750000	0.200732
2103.000000	0.200122
2103.250000	0.199969
2103.500000	0.199969
2103.750000	0.199512
2104.000000	0.200732
2104.250000	0.199512
2104.500000	0.200122
2104.750000	0.199207
2105.000000	0.199817
2105.250000	0.199207
2105.500000	0.199664
2105.750000	0.199664
2106.000000	0.199359
2106.250000	0.199969
2106.500000	0.199512
2106.750000	0.200275
2107.000000	0.199512
2107.250000	0.200732
2107.500000	0.199969
2107.750000	0.200885
2108.000000	0.200580
2108.250000	0.200580
2108.500000	0.200732
2108.750000	0.200885
2109.000000	0.201495
2109.250000	0.200885
2109.500000	0.202106
2109.750000	0.201343
2110.000000	0.202564
2110.250000	0.201953
2110.500000	0.202411
2110.750000	0.202564
2111.000000	0.203174
2111.250000	0.203174
2111.500000	0.203479
2111.750000	0.204242
2112.000000	0.204089
2112.250000	0.205158
2112.500000	0.204547
2112.750000	0.205921
2113.000000	0.205615
2113.250000	0.206531
2113.500000	0.206226
2113.750000	0.207294
2114.000000	0.207599
2114.250000	0.208057
2114.500000	0.208667
2114.750000	0.208972
2115.000000	0.210803
2115.250000	0.210040
2115.500000	0.211414
2115.750000	0.211261
2116.000000	0.212482
2116.250000	0.212329
2116.500000	0.213550
2116.750000	0.213397
2117.000000	0.214618
2117.250000	0.215228
2117.500000	0.215381
2117.750000	0.217060
2118.000000	0.216907
2118.250000	0.218433
2118.500000	0.218280
2118.750000	0.219959
2119.000000	0.219959
2119.250000	0.220874
2119.500000	0.220417
2119.750000	0.221942
2120.000000	0.223011
2120.250000	0.223316
2120.500000	0.224689
2120.750000	0.224994
2121.000000	0.226673
2121.250000	0.226520
2121.500000	0.228046
2121.750000	0.228351
2122.000000	0.229572
2122.250000	0.230182
2122.500000	0.231098
2122.750000	0.232624
2123.000000	0.233234
2123.250000	0.234607
2123.500000	0.234302
2123.750000	0.236286
2124.000000	0.236591
2124.250000	0.238727
2124.500000	0.239033
2124.750000	0.240406
2125.000000	0.240864
2125.250000	0.242084
2125.500000	0.243000
2125.750000	0.243915
2126.000000	0.245441
2126.250000	0.246204
2126.500000	0.248035
2126.750000	0.247883
2127.000000	0.249409
2127.250000	0.249714
2127.500000	0.251545
2127.750000	0.252308
2128.000000	0.253681
2128.250000	0.254444
2128.500000	0.255818
2128.750000	0.257191
2129.000000	0.257954
2129.250000	0.259327
2129.500000	0.260090
2129.750000	0.261921
2130.000000	0.262531
2130.250000	0.264210
2130.500000	0.264515
2130.750000	0.266194
2131.000000	0.267109
2131.250000	0.268177
2131.500000	0.269551
2131.750000	0.270619
2132.000000	0.271687
2132.250000	0.272602
2132.500000	0.274281
2132.750000	0.274891
2133.000000	0.276875
2133.250000	0.277333
2133.500000	0.279316
2133.750000	0.280690
2134.000000	0.282063
2134.250000	0.283589
2134.500000	0.284657
2134.750000	0.286030
2135.000000	0.287098
2135.250000	0.288624
2135.500000	0.289693
2135.750000	0.291218
2136.000000	0.292439
2136.250000	0.294423
2136.500000	0.295491
2136.750000	0.297017
2137.000000	0.298390
2137.250000	0.299611
2137.500000	0.301289
2137.750000	0.302510
2138.000000	0.304341
2138.250000	0.305104
2138.500000	0.306477
2138.750000	0.307546
2139.000000	0.309224
2139.250000	0.310750
2139.500000	0.312123
2139.750000	0.313344
2140.000000	0.315022
2140.250000	0.316701
2140.500000	0.317769
2140.750000	0.319295
2141.000000	0.320516
2141.250000	0.322499
2141.500000	0.324025
2141.750000	0.325856
2142.000000	0.326925
2142.250000	0.328603
2142.500000	0.329671
2142.750000	0.331044
2143.000000	0.333028
2143.250000	0.333791
2143.500000	0.336233
2143.750000	0.336996
2144.000000	0.338674
2144.250000	0.339284
2144.500000	0.341421
2144.750000	0.342336
2145.000000	0.344625
2145.250000	0.345693
2145.500000	0.347219
2145.750000	0.348898
2146.000000	0.349660
2146.250000	0.351644
2146.500000	0.352407
2146.750000	0.354086
2147.000000	0.354696
2147.250000	0.356985
2147.500000	0.358206
2147.750000	0.360494
2148.000000	0.361715
2148.250000	0.363088
2148.500000	0.364920
2148.750000	0.366140
2149.000000	0.368124
2149.250000	0.369192
2149.500000	0.371176
2149.750000	0.371786
2150.000000	0.373617
2150.250000	0.374685
2150.500000	0.376211
2150.750000	0.377432
2151.000000	0.378958
2151.250000	0.380179
2151.500000	0.381704
2151.750000	0.383383
2152.000000	0.384451
2152.250000	0.386587
2152.500000	0.387655
2152.750000	0.389487
2153.000000	0.390402
2153.250000	0.392081
2153.500000	0.393606
2153.750000	0.395285
2154.000000	0.396963
2154.250000	0.398032
2154.500000	0.399558
2154.750000	0.400473
2155.000000	0.402609
2155.250000	0.403983
2155.500000	0.405814
2155.750000	0.407034
2156.000000	0.408560
2156.250000	0.409628
2156.500000	0.411154
2156.750000	0.412375
2157.000000	0.413596
2157.250000	0.414969
2157.500000	0.416190
2157.750000	0.417868
2158.000000	0.419089
2158.250000	0.420615
2158.500000	0.421988
2158.750000	0.423972
2159.000000	0.425193
2159.250000	0.426566
2159.500000	0.427634
2159.750000	0.429160
2160.000000	0.430838
2160.250000	0.431601
2160.500000	0.433127
2160.750000	0.434501
2161.000000	0.436027
2161.250000	0.437247
2161.500000	0.438773
2161.750000	0.439689
2162.000000	0.441367
2162.250000	0.442435
2162.500000	0.443809
2162.750000	0.444877
2163.000000	0.445945
2163.250000	0.447471
2163.500000	0.448539
2163.750000	0.449912
2164.000000	0.451133
2164.250000	0.452659
2164.500000	0.453880
2164.750000	0.455100
2165.000000	0.456168
2165.250000	0.457237
2165.500000	0.458762
2165.750000	0.460136
2166.000000	0.461509
2166.250000	0.462577
2166.500000	0.463951
2166.750000	0.465019
2167.000000	0.466239
2167.250000	0.467613
2167.500000	0.468833
2167.750000	0.470054
2168.000000	0.470970
2168.250000	0.472038
2168.500000	0.472953
2168.750000	0.474022
2169.000000	0.475242
2169.250000	0.476310
2169.500000	0.477226
2169.750000	0.478447
2170.000000	0.479667
2170.250000	0.480583
2170.500000	0.482109
2170.750000	0.483024
2171.000000	0.483940
2171.250000	0.485008
2171.500000	0.486229
2171.750000	0.487449
2172.000000	0.488365
2172.250000	0.489433
2172.500000	0.490501
2172.750000	0.491722
2173.000000	0.492790
2173.250000	0.493858
2173.500000	0.494469
2173.750000	0.495537
2174.000000	0.496452
2174.250000	0.497215
2174.500000	0.497826
2174.750000	0.498436
2175.000000	0.500114
2175.250000	0.501030
2175.500000	0.502251
2175.750000	0.503014
2176.000000	0.504082
2176.250000	0.505150
2176.500000	0.505455
2176.750000	0.506676
2177.000000	0.507439
2177.250000	0.508354
2177.500000	0.509117
2177.750000	0.510185
2178.000000	0.510796
2178.250000	0.511559
2178.500000	0.512627
2178.750000	0.513237
2179.000000	0.514153
2179.250000	0.514458
2179.500000	0.515984
2179.750000	0.516289
2180.000000	0.516899
2180.250000	0.517357
2180.500000	0.517968
2180.750000	0.518578
2181.000000	0.519036
2181.250000	0.519951
2181.500000	0.520562
2181.750000	0.521324
2182.000000	0.521477
2182.250000	0.522087
2182.500000	0.523003
2182.750000	0.523766
2183.000000	0.524224
2183.250000	0.524529
2183.500000	0.525139
2183.750000	0.525597
2184.000000	0.525597
2184.250000	0.526207
2184.500000	0.526970
2184.750000	0.527123
2185.000000	0.527428
2185.250000	0.527886
2185.500000	0.528344
2185.750000	0.528649
2186.000000	0.529412
2186.250000	0.529717
2186.500000	0.530327
2186.750000	0.530480
2187.000000	0.530632
2187.250000	0.530785
2187.500000	0.530938
2187.750000	0.531853
2188.000000	0.532158
2188.250000	0.532311
2188.500000	0.532311
2188.750000	0.532921
2189.000000	0.533074
2189.250000	0.533684
2189.500000	0.533684
2189.750000	0.533837
2190.000000	0.534142
2190.250000	0.534447
2190.500000	0.534600
2190.750000	0.534752
2191.000000	0.534905
2191.250000	0.534905
2191.500000	0.535210
2191.750000	0.534905
2192.000000	0.535515
2192.250000	0.535668
2192.500000	0.535668
2192.750000	0.535210
2193.000000	0.535668
2193.250000	0.535668
2193.500000	0.535821
2193.750000	0.535973
2194.000000	0.535973
2194.250000	0.536278
2194.500000	0.535821
2194.750000	0.535821
2195.000000	0.535363
2195.250000	0.535668
2195.500000	0.535515
2195.750000	0.535363
2196.000000	0.534905
2196.250000	0.535058
2196.500000	0.534752
2196.750000	0.534447
2197.000000	0.534600
2197.250000	0.533989
2197.500000	0.533989
2197.750000	0.533227
2198.000000	0.533379
2198.250000	0.532769
2198.500000	0.533074
2198.750000	0.532921
2199.000000	0.532769
2199.250000	0.532311
2199.500000	0.532158
2199.750000	0.532006
2200.000000	0.531853
2200.250000	0.531701
2200.500000	0.530785
2200.750000	0.530480
2201.000000	0.529870
2201.250000	0.529564
2201.500000	0.528496
2201.750000	0.528038
2202.000000	0.528038
2202.250000	0.527581
2202.500000	0.527276
2202.750000	0.526818
2203.000000	0.526360
2203.250000	0.525292
2203.500000	0.525292
2203.750000	0.524529
2204.000000	0.524376
2204.250000	0.523613
2204.500000	0.523156
2204.750000	0.522698
2205.000000	0.521935
2205.250000	0.521477
2205.500000	0.520562
2205.750000	0.520409
2206.000000	0.519036
2206.250000	0.518883
2206.500000	0.517510
2206.750000	0.517052
2207.000000	0.516442
2207.250000	0.516136
2207.500000	0.515373
2207.750000	0.514763
2208.000000	0.514000
2208.250000	0.512932
2208.500000	0.512627
2208.750000	0.511101
2209.000000	0.510948
2209.250000	0.509728
2209.500000	0.508812
2209.750000	0.507744
2210.000000	0.507439
2210.250000	0.506676
2210.500000	0.505455
2210.750000	0.504997
2211.000000	0.503624
2211.250000	0.503014
2211.500000	0.501945
2211.750000	0.501488
2212.000000	0.500420
2212.250000	0.499657
2212.500000	0.498436
2212.750000	0.497826
2213.000000	0.497215
2213.250000	0.495995
2213.500000	0.495384
2213.750000	0.494011
2214.000000	0.493248
2214.250000	0.492027
2214.500000	0.491112
2214.750000	0.490043
2215.000000	0.489433
2215.250000	0.488365
2215.500000	0.486992
2215.750000	0.486229
2216.000000	0.485161
2216.250000	0.484092
2216.500000	0.483177
2216.750000	0.482567
2217.000000	0.480888
2217.250000	0.480278
2217.500000	0.478599
2217.750000	0.478294
2218.000000	0.476616
2218.250000	0.475395
2218.500000	0.474327
2218.750000	0.473411
2219.000000	0.472496
2219.250000	0.471275
2219.500000	0.470512
2219.750000	0.468986
2220.000000	0.468528
2220.250000	0.466850
2220.500000	0.466239
2220.750000	0.465171
2221.000000	0.464408
2221.250000	0.463493
2221.500000	0.461967
2221.750000	0.460899
2222.000000	0.459525
2222.250000	0.458762
2222.500000	0.457389
2222.750000	0.456626
2223.000000	0.455711
2223.250000	0.454643
2223.500000	0.452811
2223.750000	0.452201
2224.000000	0.450675
2224.250000	0.449607
2224.500000	0.448692
2224.750000	0.447166
2225.000000	0.445945
2225.250000	0.444572
2225.500000	0.443809
2225.750000	0.442588
2226.000000	0.441215
2226.250000	0.439689
2226.500000	0.438468
2226.750000	0.437095
2227.000000	0.436027
2227.250000	0.434653
2227.500000	0.432975
2227.750000	0.432212
2228.000000	0.430991
2228.250000	0.429618
2228.500000	0.427939
2228.750000	0.426871
2229.000000	0.425498
2229.250000	0.424277
2229.500000	0.423056
2229.750000	0.421683
2230.000000	0.420615
2230.250000	0.419852
2230.500000	0.418326
2230.750000	0.416953
2231.000000	0.415579
2231.250000	0.413901
2231.500000	0.412833
2231.750000	0.411307
2232.000000	0.410086
2232.250000	0.408713
2232.500000	0.407492
2232.750000	0.405814
2233.000000	0.404288
2233.250000	0.402609
2233.500000	0.401236
2233.750000	0.400473
2234.000000	0.398184
2234.250000	0.397726
2234.500000	0.395438
2234.750000	0.394980
2235.000000	0.392844
2235.250000	0.391775
2235.500000	0.390249
2235.750000	0.388724
2236.000000	0.387350
2236.250000	0.386435
2236.500000	0.385214
2236.750000	0.384451
2237.000000	0.382620
2237.250000	0.382010
2237.500000	0.380026
2237.750000	0.378805
2238.000000	0.377279
2238.250000	0.376364
2238.500000	0.374685
2238.750000	0.373159
2239.000000	0.371786
2239.250000	0.370260
2239.500000	0.369039
2239.750000	0.367208
2240.000000	0.366293
2240.250000	0.364309
2240.500000	0.363699
2240.750000	0.362020
2241.000000	0.361105
2241.250000	0.359121
2241.500000	0.358053
2241.750000	0.356832
2242.000000	0.355459
2242.250000	0.354543
2242.500000	0.352712
2242.750000	0.352102
2243.000000	0.350576
2243.250000	0.349508
2243.500000	0.347524
2243.750000	0.346761
2244.000000	0.344778
2244.250000	0.344015
2244.500000	0.342184
2244.750000	0.341115
2245.000000	0.339590
2245.250000	0.338064
2245.500000	0.337758
2245.750000	0.335927
2246.000000	0.335317
2246.250000	0.333181
2246.500000	0.332113
2246.750000	0.330587
2247.000000	0.329671
2247.250000	0.328298
2247.500000	0.327230
2247.750000	0.326009
2248.000000	0.324483
2248.250000	0.323873
2248.500000	0.322347
2248.750000	0.321736
2249.000000	0.319905
2249.250000	0.319295
2249.500000	0.317464
2249.750000	0.316701
2250.000000	0.315175
2250.250000	0.314565
2250.500000	0.313039
2250.750000	0.311666
2251.000000	0.311208
2251.250000	0.309224
2251.500000	0.308309
2251.750000	0.306325
2252.000000	0.305867
2252.250000	0.304189
2252.500000	0.303883
2252.750000	0.302510
2253.000000	0.301442
2253.250000	0.300374
2253.500000	0.299001
2253.750000	0.298238
2254.000000	0.296254
2254.250000	0.296101
2254.500000	0.294423
2254.750000	0.293812
2255.000000	0.292439
2255.250000	0.291524
2255.500000	0.290303
2255.750000	0.288930
2256.000000	0.288319
2256.250000	0.286488
2256.500000	0.286030
2256.750000	0.284504
2257.000000	0.284199
2257.250000	0.282521
2257.500000	0.282063
2257.750000	0.280842
2258.000000	0.280232
2258.250000	0.279164
2258.500000	0.278248
2258.750000	0.277638
2259.000000	0.276265
2259.250000	0.275959
2259.500000	0.274586
2259.750000	0.274128
2260.000000	0.273213
2260.250000	0.272297
2260.500000	0.271534
2260.750000	0.270619
2261.000000	0.269551
2261.250000	0.268788
2261.500000	0.268177
2261.750000	0.266804
2262.000000	0.266804
2262.250000	0.265431
2262.500000	0.264973
2262.750000	0.263447
2263.000000	0.263294
2263.250000	0.262226
2263.500000	0.261616
2263.750000	0.260548
2264.000000	0.259937
2264.250000	0.259480
2264.500000	0.258106
2264.750000	0.257496
2265.000000	0.256580
2265.250000	0.256275
2265.500000	0.255055
2265.750000	0.255055
2266.000000	0.254139
2266.250000	0.253681
2266.500000	0.253376
2266.750000	0.252461
2267.000000	0.252308
2267.250000	0.251087
2267.500000	0.251087
2267.750000	0.249714
2268.000000	0.249256
2268.250000	0.248951
2268.500000	0.248493
2268.750000	0.247883
2269.000000	0.247272
2269.250000	0.246662
2269.500000	0.245899
2269.750000	0.245899
2270.000000	0.245136
2270.250000	0.245289
2270.500000	0.244068
2270.750000	0.244068
2271.000000	0.243610
2271.250000	0.243458
2271.500000	0.243000
2271.750000	0.242084
2272.000000	0.242084
2272.250000	0.241474
2272.500000	0.241627
2272.750000	0.240406
2273.000000	0.240558
2273.250000	0.239643
2273.500000	0.239948
2273.750000	0.238880
2274.000000	0.239185
2274.250000	0.238422
2274.500000	0.238880
2274.750000	0.238270
2275.000000	0.237354
2275.250000	0.237659
2275.500000	0.237049
2275.750000	0.237201
2276.000000	0.236591
2276.250000	0.236896
2276.500000	0.236591
2276.750000	0.236591
2277.000000	0.236286
2277.250000	0.236133
2277.500000	0.235676
2277.750000	0.235370
2278.000000	0.235523
2278.250000	0.235370
2278.500000	0.235523
2278.750000	0.234607
2279.000000	0.235065
2279.250000	0.234607
2279.500000	0.235065
2279.750000	0.235065
2280.000000	0.234913
2280.250000	0.235065
2280.500000	0.234760
2280.750000	0.234607
2281.000000	0.234607
2281.250000	0.235065
2281.500000	0.235065
2281.750000	0.235218
2282.000000	0.234760
2282.250000	0.235065
2282.500000	0.234913
2282.750000	0.235370
2283.000000	0.235370
2283.250000	0.235523
2283.500000	0.236133
2283.750000	0.235828
2284.000000	0.236133
2284.250000	0.235523
2284.500000	0.235981
2284.750000	0.235828
2285.000000	0.236439
